EEG 1, EEG 2, EEG 3, EEG 4, EEG 5, EEG 6, EEG 7, EEG 8, TRIG
516395.000,-580732.100,32727.070,349557.900,-216485.800,273447.200,264909.600,-250675.400,0.000
506427.000,-750000.100,-356938.500,252834.100,-264408.300,459466.400,29882.760,-228388.200,0.000
701059.800,-750000.100,-298156.900,476499.000,-365702.400,569913.300,-300687.800,-164277.100,0.000
750000.100,-406032.800,642690.400,458114.900,69475.930,587808.100,-108876.800,59883.460,0.000
750000.100,207982.800,750000.100,535999.100,415463.900,737029.100,391506.900,348090.300,0.000
750000.100,661505.200,750000.100,750000.100,565708.000,750000.100,551464.100,466211.100,0.000
750000.100,673967.400,750000.100,750000.100,723347.600,750000.100,629376.800,572983.700,0.000
750000.100,673636.400,685730.800,750000.100,672301.400,750000.100,612815.200,642550.600,0.000
750000.100,680241.300,750000.100,750000.100,656278.800,750000.100,589161.900,645728.200,0.000
750000.100,750000.100,750000.100,750000.100,690642.400,750000.100,595622.200,750000.100,0.000
750000.100,750000.100,750000.100,750000.100,750000.100,750000.100,750000.100,750000.100,0.000
750000.100,750000.100,750000.100,750000.100,750000.100,750000.100,750000.100,750000.100,0.000
750000.100,750000.100,750000.100,750000.100,750000.100,750000.100,750000.100,750000.100,0.000
750000.100,750000.100,750000.100,750000.100,750000.100,750000.100,750000.100,750000.100,0.000
750000.100,750000.100,750000.100,750000.100,750000.100,750000.100,750000.100,750000.100,0.000
750000.100,750000.100,750000.100,750000.100,750000.100,750000.100,750000.100,750000.100,0.000
750000.100,701033.500,750000.100,750000.100,750000.100,750000.100,750000.100,750000.100,0.000
750000.100,667419.400,750000.100,750000.100,750000.100,750000.100,750000.100,750000.100,0.000
750000.100,642486.000,750000.100,750000.100,750000.100,750000.100,750000.100,750000.100,0.000
725901.400,619505.700,750000.100,750000.100,750000.100,750000.100,750000.100,750000.100,0.000
696822.900,597254.800,750000.100,750000.100,750000.100,750000.100,750000.100,750000.100,0.000
670873.700,577368.600,750000.100,750000.100,750000.100,750000.100,750000.100,750000.100,0.000
648373.300,560361.100,750000.100,750000.100,750000.100,750000.100,750000.100,750000.100,0.000
627732.400,544686.300,750000.100,750000.100,750000.100,750000.100,750000.100,750000.100,0.000
607617.400,528956.200,750000.100,750000.100,750000.100,750000.100,750000.100,750000.100,0.000
589207.700,514468.300,750000.100,750000.100,750000.100,750000.100,750000.100,750000.100,0.000
573329.900,502236.600,750000.100,750000.100,750000.100,750000.100,750000.100,750000.100,0.000
558843.000,491109.000,750000.100,750000.100,750000.100,750000.100,750000.100,750000.100,0.000
544366.400,479634.800,750000.100,750000.100,750000.100,750000.100,750000.100,750000.100,0.000
530724.400,468680.200,750000.100,750000.100,750000.100,750000.100,750000.100,750000.100,0.000
519018.300,459507.000,750000.100,750000.100,750000.100,750000.100,750000.100,750000.100,0.000
508526.900,451404.600,750000.100,750000.100,750000.100,750000.100,750000.100,750000.100,0.000
497856.000,442875.400,750000.100,750000.100,750000.100,750000.100,750000.100,750000.100,0.000
487407.100,434331.600,750000.100,750000.100,750000.100,750000.100,750000.100,750000.100,0.000
478476.800,427209.800,750000.100,750000.100,750000.100,750000.100,750000.100,750000.100,0.000
470690.800,421169.600,750000.100,750000.100,750000.100,750000.100,750000.100,750000.100,0.000
462710.900,414777.400,750000.100,750000.100,750000.100,750000.100,750000.100,750000.100,0.000
454532.100,407991.800,750000.100,750000.100,750000.100,750000.100,750000.100,750000.100,0.000
447508.100,402294.100,750000.100,750000.100,750000.100,750000.100,750000.100,750000.100,0.000
441602.400,397699.600,750000.100,750000.100,750000.100,750000.100,750000.100,750000.100,0.000
435584.200,392899.300,750000.100,750000.100,750000.100,750000.100,750000.100,750000.100,0.000
429080.600,387450.800,750000.100,750000.100,750000.100,750000.100,750000.100,750000.100,0.000
423378.300,382740.800,750000.100,750000.100,750000.100,750000.100,750000.100,750000.100,0.000
418786.300,379156.000,750000.100,750000.100,750000.100,750000.100,750000.100,750000.100,0.000
414219.500,375544.300,750000.100,750000.100,750000.100,750000.100,750000.100,750000.100,0.000
408982.700,371123.100,750000.100,750000.100,750000.100,750000.100,750000.100,750000.100,0.000
404268.100,367166.400,750000.100,750000.100,750000.100,750000.100,750000.100,750000.100,0.000
400614.400,364299.900,750000.100,750000.100,750000.100,750000.100,750000.100,750000.100,0.000
397137.800,361592.900,750000.100,750000.100,750000.100,750000.100,750000.100,750000.100,0.000
392931.400,358035.900,750000.100,750000.100,750000.100,750000.100,750000.100,750000.100,0.000
388930.700,354616.200,750000.100,750000.100,750000.100,750000.100,750000.100,750000.100,0.000
385935.300,352237.800,750000.100,750000.100,750000.100,750000.100,750000.100,750000.100,0.000
383292.500,350223.500,750000.100,750000.100,750000.100,750000.100,750000.100,750000.100,0.000
379947.300,347417.600,750000.100,750000.100,750000.100,750000.100,750000.100,750000.100,0.000
376519.300,344448.200,750000.100,750000.100,750000.100,750000.100,750000.100,750000.100,0.000
374010.300,342427.400,750000.100,750000.100,750000.100,750000.100,750000.100,750000.100,0.000
372005.500,340947.700,750000.100,750000.100,750000.100,750000.100,750000.100,750000.100,0.000
369383.400,338780.500,750000.100,750000.100,750000.100,750000.100,750000.100,750000.100,0.000
366407.300,336170.300,750000.100,750000.100,750000.100,750000.100,750000.100,750000.100,0.000
364234.900,334387.600,750000.100,750000.100,750000.100,750000.100,750000.100,750000.100,0.000
362690.400,333281.000,750000.100,750000.100,750000.100,750000.100,750000.100,750000.100,0.000
360668.900,331650.800,750000.100,750000.100,750000.100,750000.100,750000.100,750000.100,0.000
358098.400,329377.200,750000.100,750000.100,750000.100,750000.100,750000.100,750000.100,0.000
356147.100,327730.800,750000.100,750000.100,750000.100,750000.100,748175.000,750000.100,0.000
354929.700,326880.700,750000.100,750000.100,750000.100,750000.100,741335.200,750000.100,0.000
353404.000,325698.800,750000.100,750000.100,750000.100,750000.100,734691.500,750000.100,0.000
351167.300,323705.400,750000.100,750000.100,750000.100,750000.100,727494.100,750000.100,0.000
349385.300,322157.600,750000.100,750000.100,750000.100,750000.100,720745.400,750000.100,0.000
348404.300,321476.600,750000.100,750000.100,750000.100,750000.100,715017.300,750000.100,0.000
347316.400,320696.700,750000.100,750000.100,750000.100,750000.100,709435.800,750000.100,0.000
345422.800,319017.200,750000.100,750000.100,750000.100,750000.100,703070.500,750000.100,0.000
343747.200,317528.700,750000.100,750000.100,750000.100,750000.100,696877.300,750000.100,0.000
342924.200,316965.400,750000.100,750000.100,750000.100,750000.100,691718.600,750000.100,0.000
342195.200,316517.800,749757.000,749818.000,749526.600,750000.100,686883.600,750000.100,0.000
340640.800,315156.100,748014.800,748075.800,747785.000,748281.300,681278.000,748685.100,0.000
339063.800,313721.300,746361.200,746422.500,746132.200,746627.100,675591.700,747031.200,0.000
338323.000,313188.700,744826.300,744888.000,744598.100,745091.900,670845.500,745496.300,0.000
337851.500,312974.300,743366.300,743428.400,743138.900,743631.800,666601.600,744035.900,0.000
336609.500,311921.400,741921.100,741982.900,741694.500,742186.100,661681.700,742590.200,0.000
335108.800,310538.300,740534.400,740595.900,740308.300,740799.100,656423.600,741202.500,0.000
334403.000,310007.700,739256.300,739317.600,739030.300,739519.800,652006.100,739923.900,0.000
334151.300,309999.400,738057.100,738118.600,737831.500,738320.900,648261.700,738724.600,0.000
333244.500,309281.600,736869.000,736930.500,736644.100,737131.900,643998.900,737535.800,0.000
331818.500,307948.400,735702.700,735764.300,735478.800,735965.300,639142.400,736369.400,0.000
331082.400,307338.600,734632.300,734693.500,734408.900,734894.800,634972.300,735298.700,0.000
330973.100,307432.200,733647.600,733708.500,733424.200,733909.600,631621.100,734313.500,0.000
330346.700,306967.600,732662.400,732723.600,732439.800,732924.400,627906.900,733328.100,0.000
329037.400,305712.600,731685.600,731746.900,731463.400,731947.200,623449.800,732351.400,0.000
328253.300,305003.300,730787.000,730847.900,730564.500,731047.600,619467.800,731452.100,0.000
328206.600,305124.800,729965.600,730026.300,729744.100,730226.400,616370.900,730630.600,0.000
327848.800,304922.800,729153.400,729214.600,728932.800,729414.300,613154.500,729819.000,0.000
326667.500,303784.000,728332.500,728393.800,728112.300,728593.300,609085.700,728997.700,0.000
325819.900,302976.000,727574.600,727635.400,727354.300,727835.100,605252.000,728239.600,0.000
325798.600,303087.400,726891.800,726953.000,726671.700,727152.300,602333.300,727557.200,0.000
325690.500,303136.300,726228.700,726289.800,726009.000,726488.800,599518.100,726893.900,0.000
324680.800,302181.100,725546.400,725607.200,725327.000,725806.300,595831.900,726211.300,0.000
323766.300,301285.300,724904.300,724964.900,724684.800,725164.000,592129.600,725569.100,0.000
323732.600,301355.500,724341.500,724402.000,724122.700,724601.100,589359.800,725006.400,0.000
323806.700,301581.000,723799.400,723859.800,723580.600,724058.600,586883.000,724463.900,0.000
322993.900,300830.400,723229.300,723289.600,723010.600,723487.900,583588.200,723893.400,0.000
322038.400,299877.200,722684.300,722744.600,722465.800,722943.000,580036.200,723348.500,0.000
321940.200,299865.500,722216.900,722277.800,721998.800,722475.300,577344.800,722881.600,0.000
322158.200,300245.000,721777.800,721838.900,721560.200,722036.500,575138.100,722442.900,0.000
321564.400,299745.100,721307.600,721368.400,721089.900,721566.100,572236.700,721972.600,0.000
320567.800,298763.500,720842.900,720903.500,720625.600,721101.400,568837.400,721507.800,0.000
320382.200,298656.500,720452.800,720513.400,720235.400,720710.900,566198.900,721117.900,0.000
320694.600,299130.600,720100.800,720161.000,719883.100,720358.400,564198.600,720765.600,0.000
320312.200,298855.400,719712.400,719772.800,719495.400,719969.900,561637.900,720377.400,0.000
319320.500,297864.000,719317.100,719377.400,719100.300,719574.100,558404.600,719982.300,0.000
318987.000,297573.900,718979.800,719039.800,718762.800,719236.800,555762.500,719644.800,0.000
319323.800,298047.700,718689.200,718749.100,718471.800,718945.900,553908.000,719354.100,0.000
319191.600,298029.000,718383.300,718443.700,718166.400,718640.200,551745.800,719048.100,0.000
318251.000,297086.200,718046.900,718107.100,717830.300,718304.300,548736.500,718712.300,0.000
317789.400,296643.200,717756.700,717817.200,717540.400,718014.100,546093.200,718422.600,0.000
318118.200,297090.300,717520.200,717580.400,717304.000,717777.100,544308.600,718186.000,0.000
318177.500,297270.000,717268.100,717328.300,717051.500,717524.600,542416.800,717933.800,0.000
317330.900,296426.900,716985.400,717045.900,716769.400,717242.100,539642.200,717651.400,0.000
316755.800,295839.600,716738.300,716798.900,716523.100,716995.100,537020.400,717405.200,0.000
317036.200,296206.600,716543.600,716604.300,716328.200,716800.800,535276.000,717210.800,0.000
317271.300,296561.300,716346.200,716406.600,716131.000,716603.300,533649.400,717013.100,0.000
316547.000,295844.300,716104.700,716164.800,715889.100,716361.300,531122.400,716771.600,0.000
315849.400,295108.400,715884.800,715945.300,715669.200,716140.800,528495.300,716551.800,0.000
316058.300,295383.300,715728.100,715787.800,715512.400,715983.800,526768.700,716395.000,0.000
316422.400,295868.100,715573.300,715633.100,715357.700,715829.300,525358.000,716240.400,0.000
315875.400,295343.500,715373.300,715432.800,715157.600,715629.100,523122.100,716040.700,0.000
315094.700,294517.100,715179.300,715238.900,714964.100,715435.000,520542.500,715846.900,0.000
315167.100,294633.800,715041.800,715101.600,714826.500,715297.500,518758.200,715709.600,0.000
315641.900,295231.600,714932.200,714992.200,714717.400,715188.000,517518.300,715600.200,0.000
315295.100,294936.900,714773.100,714832.700,714557.900,715028.400,515585.900,715441.200,0.000
314448.300,294042.900,714595.400,714654.900,714380.200,714850.800,513058.700,715264.000,0.000
314387.800,294002.700,714480.600,714539.700,714265.100,714735.600,511235.800,715148.800,0.000
314893.700,294620.400,714395.700,714455.300,714181.200,714651.400,510086.000,715064.400,0.000
314742.700,294537.500,714264.600,714324.300,714050.000,714520.400,508416.800,714934.000,0.000
313892.600,293643.300,714109.100,714169.100,713894.400,714365.200,505994.600,714778.900,0.000
313680.900,293426.500,714004.900,714064.600,713790.000,714260.800,504097.800,714674.800,0.000
314191.600,294036.100,713941.700,714001.800,713727.000,714197.400,503002.500,714611.800,0.000
314239.800,294165.100,713844.400,713903.900,713629.400,714100.000,501604.100,714514.500,0.000
313431.700,293317.800,713707.900,713767.400,713493.600,713963.600,499328.700,714378.400,0.000
313056.100,292913.500,713609.300,713668.800,713395.100,713864.800,497357.400,714280.200,0.000
313505.900,293445.400,713559.000,713618.200,713344.300,713814.300,496254.400,714229.800,0.000
313741.700,293779.700,713491.100,713550.000,713276.300,713746.300,495102.700,714161.600,0.000
313034.600,293051.400,713373.600,713432.800,713158.800,713628.800,493021.200,714044.100,0.000
312529.800,292505.900,713283.000,713342.200,713068.100,713538.200,491006.400,713953.800,0.000
312891.900,292933.900,713243.600,713302.300,713028.600,713498.400,489867.800,713914.100,0.000
313264.600,293413.900,713194.800,713253.400,712980.200,713449.700,488891.200,713865.900,0.000
312687.900,292834.900,713095.700,713154.400,712881.500,713350.800,487021.200,713767.600,0.000
312056.800,292155.600,713007.200,713066.200,712793.100,713262.300,484968.800,713679.200,0.000
312306.500,292453.000,712972.900,713031.800,712758.600,713228.000,483771.600,713645.000,0.000
312787.500,293041.200,712943.000,713001.800,712728.300,713197.800,482945.800,713615.100,0.000
312383.300,292657.000,712861.900,712920.600,712647.300,713116.700,481321.000,713534.300,0.000
311666.800,291884.800,712778.500,712836.800,712563.800,713033.400,479270.300,713450.800,0.000
311787.600,292033.100,712748.600,712806.600,712533.600,713003.100,477991.500,713420.600,0.000
312333.800,292683.600,712733.100,712791.600,712518.100,712987.500,477258.600,713405.700,0.000
312116.300,292507.300,712671.600,712729.800,712456.500,712925.900,475884.200,713344.200,0.000
311344.400,291681.600,712587.800,712646.100,712373.600,712842.700,473868.400,713261.000,0.000
311301.800,291640.800,712556.600,712614.900,712342.400,712811.500,472487.800,713230.300,0.000
311855.700,292293.200,712550.100,712608.900,712336.100,712805.100,471791.900,713224.200,0.000
311837.300,292336.600,712508.900,712567.200,712294.700,712763.800,470667.400,713182.800,0.000
311079.600,291532.200,712436.400,712494.300,712221.800,712690.900,468745.100,713110.000,0.000
310870.700,291306.400,712396.200,712454.400,712182.100,712651.200,467246.600,713070.700,0.000
311399.500,291917.700,712397.800,712456.400,712183.800,712652.900,466553.300,713072.700,0.000
311559.900,292151.500,712372.800,712430.700,712158.500,712627.400,465646.800,713047.300,0.000
310839.800,291393.500,712303.200,712361.200,712089.300,712558.000,463838.200,712978.400,0.000
310491.100,291011.600,712267.300,712325.200,712053.500,712522.100,462266.100,712942.100,0.000
310943.000,291529.600,712269.500,712327.400,712055.200,712524.200,461524.400,712944.500,0.000
311248.300,291921.000,712255.000,712313.100,712040.600,712509.600,460791.400,712929.900,0.000
310642.300,291296.900,712197.900,712255.700,711983.600,712452.700,459168.600,712873.300,0.000
310151.800,290760.100,712155.900,712213.400,711941.600,712410.600,457520.400,712831.300,0.000
310503.700,291162.600,712158.300,712216.100,711944.300,712412.700,456711.100,712834.100,0.000
310936.400,291688.800,712158.400,712215.700,711944.400,712412.800,456126.400,712834.600,0.000
310454.700,291208.900,712108.100,712164.900,711894.000,712362.600,454687.400,712783.900,0.000
309834.200,290535.900,712057.700,712114.400,711843.800,712312.400,452977.200,712733.700,0.000
310076.300,290811.100,712061.500,712117.900,711847.100,712315.900,452088.100,712737.600,0.000
310598.300,291428.400,712073.900,712130.400,711859.200,712328.100,451615.900,712749.900,0.000
310280.100,291130.000,712035.100,712091.100,711820.500,712289.300,450393.800,712711.100,0.000
309595.500,290391.500,711986.600,712042.700,711771.900,712240.800,448691.400,712662.900,0.000
309684.400,290494.700,711982.300,712038.400,711767.600,712236.300,447690.100,712658.900,0.000
310234.700,291135.200,711996.300,712052.600,711781.800,712250.400,447257.000,712673.000,0.000
310095.700,291037.200,711968.600,712025.100,711754.100,712222.400,446255.800,712645.200,0.000
309368.200,290260.000,711917.500,711973.600,711703.100,712171.400,444577.700,712594.600,0.000
309307.000,290192.400,711908.400,711964.300,711694.300,712162.800,443459.200,712585.800,0.000
309871.500,290839.100,711932.000,711987.100,711716.900,712185.400,443058.100,712608.900,0.000
309923.800,290947.000,711918.600,711974.100,711704.000,712172.500,442278.900,712595.900,0.000
309186.300,290165.200,711860.600,711916.100,711646.300,712114.400,440652.100,712538.500,0.000
308973.800,289928.100,711847.100,711902.400,711632.400,712100.600,439428.300,712524.600,0.000
309508.800,290533.300,711873.700,711928.700,711658.900,712127.300,439011.300,712551.100,0.000
309728.000,290823.400,711873.300,711928.200,711658.500,712127.000,438421.800,712550.900,0.000
309057.100,290120.100,711823.200,711878.100,711608.900,712076.900,436923.300,712501.400,0.000
308682.500,289705.800,711800.900,711856.000,711586.600,712054.900,435584.700,712479.500,0.000
309131.500,290211.800,711822.400,711877.400,711607.700,712076.300,435089.600,712500.900,0.000
309488.300,290649.800,711826.600,711881.300,711612.400,712080.900,434647.800,712505.200,0.000
308925.500,290068.100,711781.600,711836.100,711567.400,712035.900,433310.000,712460.200,0.000
308431.000,289521.600,711755.300,711809.600,711540.900,712009.800,431901.300,712434.100,0.000
308795.300,289924.700,711777.800,711832.600,711564.100,712032.400,431344.300,712457.100,0.000
309266.800,290482.700,711797.600,711851.900,711583.200,712051.400,431041.300,712476.600,0.000
308832.600,290049.800,711758.500,711812.700,711543.900,712012.400,429880.500,712437.700,0.000
308230.000,289392.900,711722.400,711776.300,711507.600,711976.400,428415.500,712402.000,0.000
308451.800,289636.700,711736.700,711790.700,711522.300,711991.000,427733.400,712416.400,0.000
308996.300,290269.500,711759.100,711813.300,711544.900,712013.500,427502.500,712438.800,0.000
308742.200,290039.900,711735.600,711789.400,711521.100,711989.400,426567.500,712414.900,0.000
308063.800,289305.600,711696.000,711749.400,711481.600,711950.100,425089.200,712375.700,0.000
308138.100,289384.300,711703.900,711757.200,711489.300,711957.900,424287.400,712383.600,0.000
308712.800,290045.800,711731.600,711785.200,711516.500,711985.300,424093.100,712411.800,0.000
308620.000,289992.300,711713.600,711767.000,711499.100,711967.400,423351.300,712393.600,0.000
307903.900,289223.900,711669.800,711723.000,711455.400,711923.700,421891.000,712349.800,0.000
307837.400,289148.300,711672.800,711726.200,711458.200,711926.400,420979.400,712353.100,0.000
308416.700,289803.000,711705.900,711759.700,711491.400,711959.800,420797.600,712386.300,0.000
308512.800,289950.500,711704.100,711757.000,711489.400,711957.800,420260.200,712384.100,0.000
307801.300,289191.300,711656.300,711708.800,711442.000,711909.900,418849.300,712336.900,0.000
307576.000,288936.900,711643.800,711696.800,711429.600,711897.800,417796.000,712324.900,0.000
308139.200,289570.100,711676.200,711729.300,711462.100,711930.600,417604.200,712357.400,0.000
308414.600,289917.700,711686.800,711739.800,711472.600,711941.200,417273.500,712367.800,0.000
307724.200,289187.900,711642.600,711695.400,711428.600,711896.800,415942.600,712323.700,0.000
307343.500,288758.100,711627.400,711679.900,711413.700,711881.400,414771.200,712308.600,0.000
307847.100,289313.800,711659.800,711712.200,711445.500,711913.600,414512.500,712341.000,0.000
308262.400,289807.600,711675.900,711728.600,711461.700,711929.800,414322.300,712357.600,0.000
307673.000,289192.800,711633.800,711686.100,711419.800,711887.900,413140.700,712315.800,0.000
307144.100,288606.600,711607.300,711658.800,711393.100,711861.800,411865.200,712289.400,0.000
307529.700,289029.900,711634.500,711685.900,711420.600,711888.700,411498.100,712316.500,0.000
308058.000,289643.000,711659.400,711711.300,711445.300,711913.400,411421.600,712341.300,0.000
307635.000,289217.500,711627.400,711678.100,711413.900,711881.900,410455.200,712309.900,0.000
307000.200,288521.500,711598.700,711647.300,711385.900,711853.800,409133.200,712282.400,0.000
307228.200,288767.400,711612.800,711660.900,711400.300,711868.500,408615.400,712297.000,0.000
307830.400,289454.700,711641.900,711690.700,711429.100,711897.200,408602.700,712325.800,0.000
307595.000,289240.200,711620.500,711668.100,711408.100,711876.200,407847.200,712304.600,0.000
306873.700,288454.800,711581.100,711626.500,711369.400,711837.500,406482.500,712266.400,0.000
306961.300,288538.900,711594.300,711638.900,711382.800,711850.900,405840.000,712279.800,0.000
307590.500,289251.600,711630.300,711675.600,711418.800,711886.800,405859.300,712316.000,0.000
307543.200,289243.900,711620.200,711664.900,711408.600,711877.200,405321.600,712306.300,0.000
306791.400,288432.700,711574.700,711617.500,711364.400,711832.900,403977.800,712261.400,0.000
306711.900,288328.100,711577.600,711619.300,711367.800,711835.900,403186.000,712265.100,0.000
307327.200,289012.200,711615.800,711657.500,711405.400,711873.700,403183.900,712303.200,0.000
307458.800,289197.300,711616.800,711657.900,711406.100,711874.700,402843.200,712304.400,0.000
306738.700,288427.000,711571.800,711611.400,711362.600,711831.100,401578.100,712260.400,0.000
306491.100,288144.300,711565.100,711603.500,711357.000,711824.500,400647.900,712254.800,0.000
307049.100,288763.800,711602.500,711640.900,711394.100,711861.500,400583.400,712291.900,0.000
307352.900,289135.400,711612.600,711651.300,711404.300,711872.100,400408.300,712302.100,0.000
306703.400,288455.000,711567.400,711604.600,711359.900,711827.400,399256.700,712257.900,0.000
306298.800,288008.900,711553.300,711588.600,711346.400,711814.300,398207.500,712244.600,0.000
306760.000,288516.300,711586.400,711621.400,711379.500,711847.600,398048.700,712277.600,0.000
307206.300,289040.400,711607.900,711643.400,711401.200,711869.300,398025.000,712299.300,0.000
306670.500,288491.200,711570.900,711604.600,711364.300,711832.300,397039.000,712262.600,0.000
306126.200,287890.600,711543.500,711575.300,711337.500,711805.800,395885.300,712236.100,0.000
306461.500,288253.700,711569.100,711600.800,711363.600,711831.500,395598.500,712262.300,0.000
307003.700,288871.800,711595.800,711628.000,711390.000,711858.100,395661.600,712288.700,0.000
306651.000,288523.800,711572.600,711603.600,711367.600,711835.500,394890.000,712266.200,0.000
306008.700,287824.800,711542.600,711571.300,711338.600,711806.900,393685.000,712237.800,0.000
306207.300,288038.100,711561.400,711589.400,711357.100,711825.300,393265.200,712256.400,0.000
306799.100,288708.600,711593.600,711622.600,711389.300,711857.300,393371.900,712288.300,0.000
306622.200,288555.400,711578.400,711606.600,711375.100,711842.600,392799.900,712273.800,0.000
305919.800,287801.200,711539.300,711565.100,711336.400,711804.600,391577.600,712235.600,0.000
305951.800,287827.600,711547.400,711572.200,711344.800,711812.900,391003.600,712243.800,0.000
306550.000,288497.200,711584.400,711609.900,711381.500,711849.700,391112.700,712280.800,0.000
306533.900,288524.900,711575.800,711600.600,711372.800,711841.300,390723.300,712272.300,0.000
305831.000,287772.800,711536.600,711559.300,711334.800,711802.900,389542.600,712234.400,0.000
305713.500,287630.000,711537.400,711559.100,711336.400,711804.400,388828.600,712235.900,0.000
306293.000,288266.500,711573.800,711595.800,711372.400,711840.800,388902.000,712271.800,0.000
306476.100,288501.800,711579.200,711601.400,711377.800,711846.400,388717.600,712277.400,0.000
305798.500,287785.300,711537.100,711556.800,711336.800,711805.000,387611.000,712236.300,0.000
305525.900,287474.200,711532.300,711550.600,711332.400,711800.900,386771.100,712232.100,0.000
306046.300,288038.300,711567.600,711585.800,711367.400,711835.800,386775.400,712267.300,0.000
306383.800,288439.300,711580.200,711598.300,711379.900,711848.200,386740.700,712279.600,0.000
305791.500,287823.800,711540.800,711557.000,711341.400,711809.900,385759.700,712241.300,0.000
305371.600,287362.000,711522.900,711537.500,711324.600,711793.100,384803.000,712224.600,0.000
305786.700,287811.200,711551.600,711566.300,711353.500,711821.800,384699.800,712253.400,0.000
306260.100,288352.300,711579.200,711594.300,711380.400,711848.900,384801.700,712280.800,0.000
305798.500,287882.600,711545.100,711559.100,711347.400,711815.800,383986.400,712247.600,0.000
305260.800,287294.700,711519.100,711530.700,711322.300,711790.700,382950.000,712222.100,0.000
305561.300,287611.300,711546.000,711557.100,711349.300,711817.300,382728.100,712249.000,0.000
306097.000,288211.800,711574.800,711586.700,711378.000,711846.100,382880.100,712277.900,0.000
305804.800,287929.400,711549.900,711560.900,711353.300,711821.800,382266.800,712253.500,0.000
305187.500,287261.300,711519.100,711527.300,711323.200,711791.800,381193.100,712223.700,0.000
305349.700,287424.800,711537.900,711545.600,711342.500,711810.800,380840.000,712242.900,0.000
305920.800,288061.600,711569.700,711577.800,711374.100,711842.400,381015.300,712274.500,0.000
305798.800,287965.300,711555.100,711562.600,711359.900,711828.000,380586.900,712260.400,0.000
305130.300,287247.300,711515.800,711521.000,711321.800,711789.800,379496.200,712222.200,0.000
305143.600,287249.100,711525.600,711529.600,711331.500,711799.800,378999.200,712232.100,0.000
305732.000,287895.200,711561.500,711565.700,711366.900,711834.900,379180.200,712267.500,0.000
305783.300,287986.100,711557.900,711561.100,711363.400,711831.100,378943.300,712264.000,0.000
305113.500,287276.300,711520.800,711521.900,711327.300,711795.700,377904.800,712228.300,0.000
304970.900,287113.200,711522.300,711521.800,711329.300,711797.700,377269.700,712230.300,0.000
305514.300,287706.400,711557.400,711557.700,711364.100,711832.800,377398.400,712265.100,0.000
305738.800,287980.100,711565.900,711566.800,711372.900,711841.700,377341.900,712274.100,0.000
305115.100,287327.800,711527.400,711525.600,711335.000,711803.700,376386.400,712236.300,0.000
304817.900,286999.300,711518.100,711514.600,711326.500,711794.900,375615.800,712227.600,0.000
305284.200,287501.500,711548.400,711544.800,711356.600,711824.600,375653.300,712257.500,0.000
305631.000,287905.500,711561.400,711558.600,711369.900,711837.600,375710.000,712270.800,0.000
305110.800,287372.300,711529.600,711524.800,711338.600,711807.100,374890.400,712240.100,0.000
304683.400,286902.200,711513.800,711506.600,711323.300,711792.100,374019.100,712225.300,0.000
305049.600,287291.100,711539.300,711532.100,711348.700,711817.600,373950.400,712250.600,0.000
305515.400,287821.100,711565.100,711558.900,711374.900,711843.100,374119.300,712276.300,0.000
305117.300,287421.200,711538.300,711529.900,711348.600,711817.000,373445.500,712250.300,0.000
304575.100,286829.900,711508.900,711498.200,711320.200,711788.600,372479.000,712221.800,0.000
304835.900,287099.800,711532.600,711521.600,711343.600,711812.500,372298.400,712245.400,0.000
305371.400,287693.700,711563.400,711553.300,711374.200,711842.800,372527.300,712275.800,0.000
305131.900,287467.400,711541.700,711530.200,711353.100,711821.800,372034.500,712255.000,0.000
304524.500,286814.400,711509.400,711494.900,711321.600,711790.300,371038.200,712223.300,0.000
304637.100,286924.500,711524.600,711508.900,711337.000,711805.600,370708.200,712238.600,0.000
305192.900,287535.800,711558.900,711544.100,711370.800,711839.400,370943.100,712272.700,0.000
305125.300,287494.100,711549.600,711533.900,711362.000,711830.500,370641.700,712263.900,0.000
304489.000,286812.900,711514.700,711496.200,711328.200,711796.600,369655.500,712229.700,0.000
304460.200,286767.300,711519.400,711499.700,711333.500,711801.900,369187.700,712234.900,0.000
305012.300,287368.300,711554.600,711535.600,711368.600,711836.900,369401.800,712270.000,0.000
305120.600,287513.600,711557.300,711537.900,711371.200,711839.800,369285.600,712272.500,0.000
304491.600,286849.900,711518.000,711495.900,711332.800,711801.400,368348.000,712234.400,0.000
304317.100,286648.500,711517.600,711493.500,711332.800,711801.400,367750.100,712234.400,0.000
304832.900,287203.800,711553.000,711529.200,711367.800,711836.600,367915.900,712269.300,0.000
305085.900,287502.500,711561.800,711538.300,711376.600,711844.800,367950.000,712278.300,0.000
304510.000,286901.700,711522.100,711495.700,711337.700,711806.000,367099.100,712239.200,0.000
304202.600,286559.900,711517.200,711488.600,711333.700,711802.300,366388.200,712235.500,0.000
304647.300,287037.200,711553.400,711525.000,711369.700,711838.600,366472.800,712271.600,0.000
305018.800,287462.000,711568.700,711541.200,711384.800,711853.600,366618.300,712286.500,0.000
304533.100,286961.500,711532.900,711502.400,711349.600,711818.300,365894.300,712251.600,0.000
304097.100,286486.200,711512.800,711478.700,711329.900,711798.900,365071.600,712232.100,0.000
304435.400,286843.800,711539.800,711505.900,711357.300,711825.600,365035.800,712259.200,0.000
304911.900,287372.200,711567.000,711534.300,711384.000,711852.300,365278.000,712286.100,0.000
304570.500,287031.600,711542.200,711506.800,711359.600,711827.900,364729.300,712261.700,0.000
304023.600,286441.100,711514.900,711475.200,711333.600,711801.700,363831.900,712235.500,0.000
304236.600,286658.600,711536.400,711496.200,711355.300,711823.500,363666.900,712257.300,0.000
304785.900,287261.900,711572.800,711534.600,711391.500,711860.000,363965.400,712293.600,0.000
304597.500,287087.500,711553.900,711513.900,711372.400,711841.300,363590.700,712275.100,0.000
303987.100,286432.700,711519.800,711474.500,711339.300,711808.100,362656.500,712241.800,0.000
304060.400,286498.100,711532.900,711485.800,711353.100,711821.600,362345.800,712255.200,0.000
304615.200,287104.500,711568.100,711522.900,711387.700,711856.000,362640.500,712290.100,0.000
304600.400,287117.200,711561.600,711515.200,711381.600,711849.800,362452.400,712283.800,0.000
303971.000,286446.800,711527.100,711473.300,711348.100,711816.400,361538.000,712249.800,0.000
303899.600,286355.700,711529.600,711471.900,711351.000,711819.300,361084.300,712252.800,0.000
304433.300,286932.800,711563.300,711508.400,711384.200,711852.700,361336.200,712286.200,0.000
304576.000,287114.900,711565.900,711510.900,711386.700,711855.400,361313.800,712289.300,0.000
303976.200,286481.100,711531.100,711463.400,711352.700,711821.200,360462.900,712255.400,0.000
303763.800,286238.300,711528.800,711446.800,711350.600,711819.100,359882.700,712253.100,0.000
304250.000,286760.800,711563.000,711488.100,711384.200,711852.900,360073.600,712286.600,0.000
304541.000,287099.800,711575.500,711500.100,711397.300,711865.900,360195.600,712299.400,0.000
303998.800,286538.800,711534.800,711192.600,711363.200,711832.100,359444.800,712265.100,0.000
303648.100,286147.100,711508.300,710543.900,711347.500,711816.000,358738.400,712248.800,0.000
304052.800,286573.400,711537.600,710688.100,711376.800,711845.300,358828.000,712278.300,0.000
304456.100,287028.400,711561.400,711024.100,711396.400,711864.900,359054.500,712298.200,0.000
304022.900,286589.400,711526.600,710222.900,711366.100,711834.600,358441.900,712268.100,0.000
303558.300,286083.000,711503.800,709099.200,711346.400,711815.200,357650.300,712248.300,0.000
303865.200,286401.100,711529.300,709110.600,711371.700,711840.800,357630.200,712273.400,0.000
304354.200,286943.400,711556.100,709585.600,711397.900,711866.700,357927.700,712299.100,0.000
304055.600,286650.700,711532.600,708891.900,711375.900,711844.200,357467.900,712276.900,0.000
303501.500,286053.700,711501.800,707550.300,711346.800,711815.200,356609.800,712248.300,0.000
303677.300,286232.300,711519.600,707336.900,711364.000,711833.100,356446.500,712265.800,0.000
304218.400,286824.800,711553.900,707905.000,711398.100,711866.800,356779.200,712299.500,0.000
304084.800,286716.400,711541.700,707469.100,711387.100,711855.300,356511.500,712287.800,0.000
303474.700,286071.100,711508.900,706072.800,711356.300,711824.800,355640.500,712257.100,0.000
303500.200,286085.300,711514.300,705622.300,711362.200,711830.800,355326.000,712262.900,0.000
304049.600,286679.900,711550.800,706167.800,711398.400,711866.700,355648.900,712299.200,0.000
304085.300,286742.700,711548.100,706009.500,711395.400,711863.900,355548.800,712295.900,0.000
303461.300,286079.100,711508.800,704672.300,711357.900,711826.300,354686.100,712258.100,0.000
303349.000,285941.800,711509.100,704026.600,711358.900,711827.200,354238.800,712259.400,0.000
303874.900,286506.700,711543.100,704484.900,711392.400,711860.900,354516.800,712293.200,0.000
304055.000,286722.500,711546.400,704564.500,711395.300,711864.000,354569.600,712296.100,0.000
303478.000,286115.200,711512.800,703381.200,711363.100,711831.800,353794.900,712263.700,0.000
303235.200,285840.000,711507.400,702562.900,711358.400,711827.200,353228.000,712259.000,0.000
303703.200,286333.300,711539.800,702899.000,711390.400,711859.000,353431.800,712291.300,0.000
304019.100,286692.700,711552.900,703172.100,711403.400,711871.900,353618.800,712304.000,0.000
303516.500,286172.300,711522.300,702166.900,711373.700,711842.400,352946.800,712273.900,0.000
303144.900,285760.300,711506.900,701187.900,711359.300,711827.800,352262.500,712259.900,0.000
303517.200,286148.800,711534.600,701364.200,711386.300,711855.400,352357.200,712287.200,0.000
303959.300,286640.800,711559.700,701798.900,711411.200,711880.000,352660.400,712311.900,0.000
303571.800,286248.000,711532.800,701013.400,711385.500,711854.200,352136.100,712286.000,0.000
303085.500,285718.500,711508.900,699899.100,711362.400,711831.100,351362.700,712262.900,0.000
303351.100,285989.100,711530.300,699893.400,711383.600,711852.400,351336.700,712284.100,0.000
303848.400,286532.800,711557.600,700394.100,711411.200,711879.600,351683.800,712311.400,0.000
303601.200,286292.200,711536.400,699843.400,711390.400,711859.200,351320.700,712291.100,0.000
303040.800,285688.800,711510.300,698663.500,711364.900,711833.600,350505.700,712265.300,0.000
303178.100,285823.100,711525.200,698456.300,711380.300,711848.600,350344.300,712280.400,0.000
303729.600,286422.800,711558.700,698997.600,711413.300,711882.000,350719.100,712313.800,0.000
303642.800,286355.300,711547.400,698694.800,711402.100,711870.900,350528.000,712302.800,0.000
303024.000,285692.700,711511.100,697467.400,711366.900,711835.900,349684.400,712267.500,0.000
303036.300,285688.500,711522.600,697063.300,711378.800,711847.700,349396.100,712278.900,0.000
303576.700,286273.200,711557.400,697569.400,711413.500,711882.400,349743.200,712313.800,0.000
303645.000,286372.700,711555.400,697505.100,711411.200,711879.700,349717.500,712311.800,0.000
303033.300,285726.100,711518.100,696328.300,711374.600,711843.300,348914.500,712274.900,0.000
302893.500,285558.600,711517.700,695708.400,711374.500,711843.400,348475.300,712274.700,0.000
303403.600,286100.800,711552.400,696143.300,711408.800,711877.600,348772.200,712308.900,0.000
303630.600,286369.100,711561.000,696308.800,711417.100,711886.100,348903.100,712317.300,0.000
303065.900,285782.300,711528.300,695246.800,711385.200,711853.800,348181.800,712285.300,0.000
302782.800,285465.900,711522.100,694435.600,711379.800,711848.400,347614.400,712280.200,0.000
303220.600,285926.600,711549.700,694735.000,711407.300,711875.800,347814.800,712307.100,0.000
303568.800,286318.300,711562.800,695064.100,711420.400,711888.700,348060.300,712320.300,0.000
303093.700,285830.000,711531.700,694162.600,711389.400,711857.900,347461.600,712289.300,0.000
302697.700,285397.100,711517.400,693200.100,711375.600,711843.900,346797.900,712275.200,0.000
303044.700,285760.800,711542.500,693354.100,711400.700,711869.200,346894.200,712300.400,0.000
303492.200,286260.400,711568.200,693822.300,711426.400,711894.700,347235.700,712325.900,0.000
303131.600,285903.300,711541.400,693128.300,711400.400,711868.600,346780.800,712299.500,0.000
302619.300,285353.400,711514.900,692026.300,711374.300,711842.500,346023.700,712273.100,0.000
302860.300,285600.300,711535.100,691997.200,711394.400,711863.100,345997.900,712293.600,0.000
303378.700,286166.500,711561.300,692534.600,711420.600,711889.500,346384.200,712319.900,0.000
303173.900,285970.300,711545.800,692086.700,711405.400,711874.100,346105.600,712304.600,0.000
302592.200,285351.000,711517.800,690917.800,711377.300,711845.700,345305.200,712276.600,0.000
302695.600,285450.500,711533.300,690686.100,711393.600,711861.800,345133.800,712292.600,0.000
303248.700,286047.300,711567.900,691252.100,711427.400,711896.100,345533.200,712326.400,0.000
303209.800,286030.500,711560.600,691051.300,711419.800,711888.500,345427.100,712318.800,0.000
302592.700,285375.500,711524.800,689868.600,711384.400,711853.500,344623.900,712283.300,0.000
302554.300,285319.800,711529.900,689426.700,711390.000,711859.400,344311.900,712288.900,0.000
303090.700,285895.900,711562.800,689948.600,711422.400,711891.500,344677.700,712321.400,0.000
303210.500,286051.000,711567.000,689986.900,711426.800,711895.600,344735.300,712325.400,0.000
302605.300,285415.300,711533.100,688865.100,711393.200,711861.800,343978.800,712291.700,0.000
302417.200,285201.500,711528.900,688210.900,711389.400,711858.100,343522.600,712287.600,0.000
302915.300,285730.300,711560.900,688635.300,711421.300,711889.700,343820.800,712319.200,0.000
303182.800,286038.700,711568.900,688873.300,711429.300,711897.600,344017.000,712327.000,0.000
302640.500,285475.100,711532.800,687870.300,711393.400,711861.900,343350.300,712291.400,0.000
302326.700,285128.100,711523.000,687038.000,711383.600,711852.400,342781.200,712281.800,0.000
302747.800,285572.500,711553.600,687335.900,711413.900,711882.800,342991.900,712312.500,0.000
303137.900,286008.100,711573.800,687747.600,711434.600,711903.000,343310.200,712332.600,0.000
302688.200,285545.800,711544.100,686919.600,711405.200,711873.700,342767.800,712302.500,0.000
302247.800,285065.000,711522.600,685920.600,711383.300,711852.300,342083.100,712280.200,0.000
302573.200,285403.300,711550.000,686058.900,711410.600,711879.500,342180.600,712306.700,0.000
303051.300,285931.100,711577.000,686586.800,711437.800,711906.700,342571.900,712333.300,0.000
302737.000,285619.400,711554.900,685980.100,711416.400,711885.300,342189.900,712310.500,0.000
302197.900,285039.700,711519.400,684869.300,711387.100,711855.600,341437.800,712279.400,0.000
302399.700,285241.300,711538.400,684807.400,711406.500,711874.800,341399.600,712297.600,0.000
302935.700,285825.700,711578.300,685388.800,711439.600,711908.300,341827.800,712330.800,0.000
302774.800,285682.200,711558.700,685025.800,711425.100,711893.800,341617.700,712315.100,0.000
302165.600,285034.000,711521.300,683896.400,711388.100,711856.600,340817.300,712276.300,0.000
302212.800,285071.600,711530.800,683836.300,711394.900,711863.500,340611.300,712282.400,0.000
302759.800,285661.000,711560.600,684639.400,711427.600,711896.100,341026.700,712314.400,0.000
302768.500,285697.300,711556.000,684553.500,711423.500,711891.800,340989.400,712309.600,0.000
302151.600,285044.600,711525.100,683455.900,711389.100,711857.700,340213.600,712273.600,0.000
302067.800,284940.800,711531.200,683185.600,711392.400,711861.300,339881.000,712276.000,0.000
302593.400,285506.500,711555.700,683912.800,711424.300,711892.800,340250.400,712306.900,0.000
302744.300,285697.000,711545.600,684208.100,711422.800,711891.600,340353.800,712304.400,0.000
302148.900,285072.000,711522.700,683304.700,711385.900,711855.000,339628.400,712266.200,0.000
301934.700,284824.800,711518.800,682788.900,711380.100,711848.900,339159.800,712258.800,0.000
302422.200,285336.000,711553.100,683374.500,711414.800,711883.100,339466.700,712292.300,0.000
302719.600,285674.900,711564.100,683833.500,711426.200,711894.500,339713.800,712302.900,0.000
302190.200,285128.900,711530.200,683031.600,711392.100,711860.600,339090.900,712267.500,0.000
301837.000,284741.200,711516.300,682302.900,711378.200,711846.600,338499.800,712251.700,0.000
302227.600,285151.300,711541.400,682693.200,711402.700,711871.400,338684.900,712275.500,0.000
302655.500,285624.600,711564.300,683283.300,711425.200,711894.400,339047.000,712297.200,0.000
302244.800,285206.300,711538.600,682653.900,711399.800,711869.200,338571.600,712270.100,0.000
301775.700,284695.200,711515.000,681750.100,711376.300,711845.300,337885.600,712245.000,0.000
302065.900,284990.600,711537.000,681952.800,711398.700,711867.100,337958.700,712266.000,0.000
302565.200,285537.000,711564.100,682615.300,711425.900,711894.100,338373.800,712292.800,0.000
302297.400,285272.400,711543.500,682195.900,711405.000,711873.400,338053.800,712270.400,0.000
301740.000,284671.800,711514.300,681184.400,711376.300,711844.400,337306.300,712239.800,0.000
301905.100,284835.400,711531.900,681175.600,711394.200,711862.300,337245.400,712256.300,0.000
302445.200,285419.400,711563.400,681852.300,711425.100,711893.400,337674.800,712287.100,0.000
302340.100,285333.500,711553.600,681668.100,711415.300,711883.800,337536.800,712276.200,0.000
301745.700,284701.500,711522.700,680615.900,711384.900,711853.300,336784.800,712243.000,0.000
301767.500,284709.500,711529.800,680374.500,711391.900,711860.400,336575.200,712248.800,0.000
302301.300,285285.000,711557.400,681008.300,711420.000,711888.100,336985.800,712275.800,0.000
302358.400,285373.200,711556.100,681051.900,711418.400,711886.900,337017.800,712273.100,0.000
301752.500,284735.600,711522.100,680004.800,711384.300,711853.300,336279.700,712236.900,0.000
301640.200,284600.100,711524.100,679555.800,711386.300,711854.800,335934.600,712237.100,0.000
302150.700,285145.200,711556.000,680126.000,711418.300,711886.800,336304.600,712268.500,0.000
302354.200,285385.600,711562.000,680376.100,711424.300,711892.600,336480.100,712273.600,0.000
301793.200,284796.700,711528.600,679419.300,711391.500,711859.400,335817.400,712238.600,0.000
301543.700,284516.900,711523.000,678765.600,711385.800,711853.800,335342.200,712230.600,0.000
302006.200,285003.000,711555.400,679223.900,711417.900,711886.100,335641.000,712262.300,0.000
302347.400,285386.900,711571.100,679662.400,711433.800,711901.900,335952.400,712276.800,0.000
301853.300,284879.300,711539.600,678851.200,711402.300,711870.600,335397.000,712243.600,0.000
301468.500,284460.700,711523.400,678024.400,711385.900,711854.600,334804.900,712225.100,0.000
301846.100,284854.800,711549.800,678329.900,711412.300,711881.000,334999.800,712250.100,0.000
302295.900,285352.900,711573.600,678903.300,711436.100,711904.700,335411.900,712272.800,0.000
301923.000,284978.600,711544.100,678286.700,711406.700,711875.200,335003.600,712241.800,0.000
301438.400,284456.600,711519.400,677326.400,711382.200,711850.600,334333.700,712214.900,0.000
301701.200,284727.600,711543.500,677445.600,711406.300,711874.700,334403.100,712237.800,0.000
302221.800,285295.300,711574.000,678093.100,711436.600,711905.000,334867.300,712267.400,0.000
301991.000,285071.100,711552.800,677696.700,711415.600,711883.600,334615.400,712244.300,0.000
301410.300,284445.000,711519.800,676614.500,711382.500,711850.700,333864.600,712208.700,0.000
301534.700,284561.300,711535.900,676498.300,711398.300,711866.700,333774.000,712223.100,0.000
302076.500,285145.700,711569.100,677138.400,711431.800,711900.100,334230.400,712255.600,0.000
301998.500,285085.200,711559.100,676955.100,711421.900,711889.800,334134.700,712244.000,0.000
301377.000,284419.200,711526.300,675825.300,711389.300,711857.300,333363.000,712208.700,0.000
301352.900,284372.800,711532.100,675466.500,711395.300,711863.800,333104.800,712212.900,0.000
301892.000,284946.400,711567.900,676059.800,711431.100,711899.400,333527.200,712247.500,0.000
301985.800,285068.200,711568.400,676126.600,711431.600,711899.900,333603.600,712246.300,0.000
301387.200,284434.400,711531.900,675068.500,711395.300,711863.400,332882.700,712207.200,0.000
301230.000,284252.300,711530.400,674527.300,711393.600,711861.800,332500.500,712203.300,0.000
301746.500,284802.000,711566.200,675064.200,711429.300,711897.600,332880.800,712237.800,0.000
301983.500,285083.200,711572.000,675348.900,711435.100,711903.400,333106.200,712242.800,0.000
301436.800,284517.400,711539.800,674418.600,711402.600,711870.800,332483.200,712207.200,0.000
301157.400,284205.000,711532.300,673713.300,711395.500,711863.400,331991.700,712197.100,0.000
301597.600,284666.400,711559.600,674119.500,711422.600,711890.500,332271.500,712223.400,0.000
301992.000,285106.200,711579.100,674604.600,711441.700,711910.300,332643.600,712241.600,0.000
301551.500,284655.700,711549.400,673854.600,711412.100,711880.800,332156.100,712208.900,0.000
301152.900,284220.100,711533.800,672994.900,711396.300,711864.800,331567.000,712190.200,0.000
301506.800,284590.900,711560.100,673255.100,711422.600,711891.100,331754.000,712214.500,0.000
301987.800,285121.300,711585.800,673856.600,711448.600,711917.100,332204.600,712239.600,0.000
301661.800,284795.100,711558.300,673305.100,711421.200,711889.800,331857.200,712209.700,0.000
301148.500,284242.800,711531.000,672311.600,711393.600,711862.400,331180.900,712178.600,0.000
301383.300,284479.100,711556.000,672377.100,711418.500,711887.100,331234.600,712201.100,0.000
301909.400,285047.300,711586.100,673018.300,711448.800,711917.500,331708.100,712229.900,0.000
301717.000,284863.300,711568.300,672682.200,711431.100,711899.900,331512.700,712209.300,0.000
301133.300,284235.700,711535.800,671609.500,711398.600,711867.000,330783.500,712172.000,0.000
301237.000,284327.900,711551.200,671459.900,711413.700,711882.200,330683.900,712184.400,0.000
301790.500,284921.700,711585.600,672104.400,711448.200,711916.900,331158.800,712217.300,0.000
301775.200,284931.100,711578.600,672018.200,711440.900,711909.600,331144.300,712206.800,0.000
301167.900,284287.000,711542.700,670940.300,711405.300,711873.800,330419.900,712163.400,0.000
301122.800,284221.700,711547.200,670570.300,711409.200,711878.500,330167.800,712160.900,0.000
301671.800,284803.500,711582.400,671175.400,711444.700,711913.300,330611.700,712192.500,0.000
301802.800,284966.200,711581.400,671317.100,711444.400,711912.700,330752.200,712170.900,0.000
301204.600,284335.000,711545.100,670294.500,711407.900,711876.300,330070.700,711805.300,0.000
301020.700,284121.800,711539.800,669725.600,711402.900,711871.700,329684.500,711101.400,0.000
301522.500,284650.700,711573.400,670242.400,711436.800,711905.300,330065.500,710779.100,0.000
301800.800,284969.000,711583.600,670583.300,711446.900,711915.300,330348.300,710372.300,0.000
301271.200,284420.300,711549.600,669689.500,711413.100,711881.900,329767.300,709238.400,0.000
300948.000,284062.400,711537.100,668932.400,711399.900,711868.900,329256.100,708100.500,0.000
301370.600,284505.300,711567.800,669308.800,711430.500,711899.500,329538.000,707630.500,0.000
301775.700,284953.900,711588.200,669816.900,711451.500,711920.100,329933.900,707275.100,0.000
301362.000,284527.400,711562.000,669118.100,711425.500,711894.000,329491.600,706238.400,0.000
300917.300,284042.200,711541.400,668202.200,711405.300,711873.100,328870.300,705071.000,0.000
301223.800,284357.200,711563.700,668389.700,711427.400,711895.600,329012.400,704526.600,0.000
301715.600,284896.300,711590.500,668999.200,711454.600,711923.100,329480.900,704252.600,0.000
301428.300,284612.900,711570.700,668508.200,711434.900,711903.100,329189.700,703399.300,0.000
300896.400,284039.600,711544.500,667484.100,711408.300,711876.300,328499.500,702245.700,0.000
301081.500,284225.200,711559.700,667473.300,711423.500,711891.800,328502.400,701628.200,0.000
301612.100,284799.700,711589.800,668112.900,711453.400,711922.300,328983.800,701379.000,0.000
301466.800,284666.600,711575.100,667844.900,711438.700,711907.500,328845.500,700662.400,0.000
300870.000,284029.800,711542.200,666761.800,711405.600,711873.900,328116.800,699498.100,0.000
300924.300,284074.700,711554.400,666541.400,711417.600,711886.200,327977.900,698779.400,0.000
301475.800,284665.800,711592.100,667178.100,711455.300,711924.400,328457.200,698531.600,0.000
301484.400,284695.400,711585.000,667143.400,711448.400,711917.100,328481.800,697942.400,0.000
300880.900,284053.700,711548.100,666078.400,711411.400,711880.400,327769.600,696802.400,0.000
300809.700,283960.500,711554.800,665665.800,711417.900,711886.800,327498.500,695996.900,0.000
301336.400,284521.000,711589.200,666248.100,711452.400,711921.100,327929.000,695713.400,0.000
301518.800,284740.500,711593.900,666463.100,711457.300,711925.600,328129.600,695259.600,0.000
300948.700,284141.200,711558.900,665488.100,711422.400,711890.800,327488.500,694175.800,0.000
300724.900,283886.700,711554.100,664871.400,711417.200,711885.900,327072.600,693262.000,0.000
301202.200,284389.100,711587.400,665346.800,711450.300,711919.100,327428.800,692931.800,0.000
301513.500,284738.400,711596.600,665733.700,711459.400,711928.100,327747.100,692568.600,0.000
301014.800,284220.900,711563.600,664894.300,711426.200,711894.900,327207.100,691566.300,0.000
300655.700,283826.100,711549.600,664091.900,711412.300,711880.900,326666.000,690562.600,0.000
301060.400,284241.900,711578.400,664430.300,711441.100,711909.700,326924.800,690163.400,0.000
301502.200,284719.400,711602.100,664981.400,711464.900,711933.400,327361.300,689899.800,0.000
301106.700,284315.500,711575.100,664326.500,711437.600,711906.100,326951.600,689001.800,0.000
300626.500,283796.500,711551.100,663376.800,711414.100,711882.400,326307.900,687926.400,0.000
300901.500,284078.500,711572.400,663516.800,711435.500,711904.100,326419.300,687415.300,0.000
301404.500,284627.500,711598.300,664141.500,711461.300,711930.200,326900.400,687157.300,0.000
301144.300,284375.800,711576.700,663707.600,711439.900,711908.400,326645.300,686172.600,0.000
300583.100,283772.800,711546.800,662666.300,711409.800,711878.100,325927.900,685136.300,0.000
300732.400,283912.900,711558.200,662600.300,711420.800,711889.500,325876.900,684796.100,0.000
301273.500,284492.700,711589.300,663251.300,711452.200,711921.300,326356.000,684858.900,0.000
301173.500,284411.900,711577.600,663056.100,711440.300,711909.600,326263.000,684491.000,0.000
300564.200,283762.000,711541.700,661972.900,711404.500,711873.400,325520.800,683629.400,0.000
300579.700,283757.900,711551.100,661708.100,711413.900,711882.800,325333.900,683186.800,0.000
301119.400,284330.100,711583.900,662330.900,711446.700,711915.500,325784.800,683225.300,0.000
301181.600,284418.700,711582.100,662375.500,711444.700,711913.400,325851.500,682977.500,0.000
300590.800,283796.300,711550.600,661349.100,711413.100,711882.000,325156.800,682161.500,0.000
300459.100,283642.200,711552.700,660870.200,711414.800,711883.600,324822.400,681607.400,0.000
300935.700,284149.300,711579.400,661385.800,711441.900,711910.900,325184.600,681561.400,0.000
301140.300,284387.000,711581.300,661623.800,711443.800,711913.000,325378.300,681392.200,0.000
300585.900,283806.600,711549.100,660681.000,711410.800,711879.700,324736.300,680605.900,0.000
300295.300,283482.200,711536.600,659981.800,711398.800,711867.400,324232.500,679912.500,0.000
300728.300,283933.700,711564.300,660386.600,711426.400,711895.300,324514.100,679812.100,0.000
301063.200,284307.900,711579.000,660791.400,711441.600,711910.300,324822.200,679734.900,0.000
300572.900,283806.000,711548.700,659974.700,711410.800,711879.700,324264.800,679010.200,0.000
300172.100,283367.300,711532.300,659117.800,711394.200,711862.900,323650.500,678239.900,0.000
300507.600,283712.800,711555.400,659359.500,711417.400,711886.400,323803.300,678034.300,0.000
300938.700,284185.600,711579.600,659887.900,711441.800,711910.500,324192.000,678009.400,0.000
300553.700,283797.100,711551.800,659250.700,711413.700,711882.700,323752.300,677369.000,0.000
300024.600,283227.000,711522.700,658237.300,711385.000,711853.600,323011.600,676497.400,0.000
300250.900,283458.900,711545.100,658296.300,711407.300,711875.900,323033.600,676198.500,0.000
300763.200,284011.900,711579.300,658905.600,711441.200,711910.300,323480.000,676217.000,0.000
300530.500,283782.700,711559.100,658498.900,711420.800,711889.800,323212.000,675690.900,0.000
299937.500,283144.600,711526.700,657409.800,711388.100,711856.900,322432.000,674773.700,0.000
300036.900,283236.200,711540.600,657264.200,711402.100,711870.900,322310.600,674351.100,0.000
300560.600,283798.400,711575.000,657872.100,711437.000,711905.900,322750.600,674349.800,0.000
300463.800,283721.300,711559.300,657680.900,711421.100,711889.900,322631.500,673921.500,0.000
299823.900,283046.900,711520.500,656558.500,711382.100,711850.900,321824.800,672975.100,0.000
299781.200,282987.800,711527.800,656195.500,711389.100,711857.900,321543.500,672418.400,0.000
300294.400,283539.800,711567.100,656764.100,711428.400,711897.300,321949.700,672373.300,0.000
300353.500,283630.500,711564.300,656799.600,711425.600,711894.500,321994.600,672049.300,0.000
299712.200,282956.900,711523.900,655706.700,711385.100,711853.800,321210.500,671104.100,0.000
299526.000,282744.800,711526.500,655127.300,711388.000,711856.400,320774.600,670427.000,0.000
299982.700,283227.200,711557.200,655574.800,711418.700,711887.200,321078.300,670300.500,0.000
300184.800,283467.600,711562.100,655794.100,711423.900,711892.400,321246.300,670064.500,0.000
299594.800,282855.900,711526.900,654797.900,711388.300,711857.100,320525.300,669158.900,0.000
299268.300,282497.400,711521.600,654016.400,711382.700,711851.500,319928.800,668338.600,0.000
299663.400,282917.400,711553.000,654344.900,711414.400,711883.000,320135.500,668107.000,0.000
300008.300,283307.100,711572.600,654758.700,711434.000,711902.900,320434.400,667942.100,0.000
299511.400,282796.100,711537.500,653925.600,711398.500,711867.400,319817.500,667090.000,0.000
299005.700,282252.000,711506.800,652915.700,711367.600,711836.300,319029.600,666101.100,0.000
299262.000,282519.000,711525.700,653020.200,711386.700,711855.100,319047.200,665710.400,0.000
299660.700,282957.100,711549.100,653477.400,711410.400,711878.600,319359.200,665537.400,0.000
299290.000,282577.200,711531.900,652821.500,711393.000,711861.800,318873.500,664771.300,0.000
298677.800,281912.700,711501.500,651639.800,711362.100,711831.100,317959.800,663667.900,0.000
298789.500,282014.700,711515.500,651485.900,711376.700,711845.200,317778.200,663117.400,0.000
299202.900,282460.300,711541.600,651921.000,711402.300,711870.800,318053.900,662920.400,0.000
298918.300,282170.100,711523.800,651383.600,711383.600,711852.600,317635.900,662211.700,0.000
298214.800,281401.000,711485.600,650065.500,711345.300,711813.800,316597.600,661027.500,0.000
298134.900,281293.800,711483.300,649605.500,711343.100,711811.800,316146.800,660259.400,0.000
298543.400,281733.800,711508.600,649986.000,711368.600,711837.200,316337.800,659971.100,0.000
298427.600,281629.400,711505.600,649687.100,711365.900,711834.500,316059.200,659342.900,0.000
297683.000,280832.300,711468.100,648338.200,711328.200,711797.100,314969.500,658111.000,0.000
297467.600,280585.700,711463.100,647652.400,711322.600,711791.300,314325.300,657213.200,0.000
297850.500,280998.200,711493.300,647941.500,711353.100,711821.600,314414.300,656860.300,0.000
297835.300,281006.200,711491.600,647772.100,711351.600,711820.100,314187.400,656258.100,0.000
297054.100,280181.100,711447.800,646381.800,711307.000,711775.600,313024.500,654945.800,0.000
296654.900,279741.400,711436.100,645390.000,711295.100,711763.500,312115.100,653821.100,0.000
296906.200,280013.700,711454.600,645438.100,711313.800,711782.500,311964.500,653251.800,0.000
296974.400,280117.700,711457.100,645355.100,711316.100,711784.800,311750.900,652637.600,0.000
296245.000,279355.100,711417.300,644025.100,711276.000,711745.100,310593.900,651321.400,0.000
295707.900,278773.300,711397.900,642800.300,711256.100,711725.300,309462.200,650011.000,0.000
295916.800,279001.300,711425.800,642727.700,711283.900,711752.900,309182.400,649325.700,0.000
296119.600,279248.900,711444.700,642811.100,711302.900,711771.500,309049.000,648738.700,0.000
295506.700,278615.300,711403.300,641672.800,711261.100,711729.900,307987.600,647447.800,0.000
294906.300,277961.700,711374.900,640361.300,711232.800,711700.900,306746.700,646020.800,0.000
295103.500,278169.200,711398.500,640250.600,711256.100,711724.600,306402.300,645257.700,0.000
295563.500,278685.200,711434.000,640691.600,711291.400,711760.500,306518.800,644840.200,0.000
295260.200,278388.400,711414.700,640056.000,711272.500,711741.000,305837.700,643815.200,0.000
294690.000,277775.400,711386.100,638867.300,711243.800,711712.100,304700.600,642438.800,0.000
294857.800,277946.600,711404.300,638748.600,711261.900,711730.900,304354.000,641648.500,0.000
295440.900,278584.800,711447.600,639406.100,711305.300,711774.200,304642.800,641346.100,0.000
295398.000,278563.700,711443.900,639225.300,711301.600,711770.400,304325.600,640596.600,0.000
294891.800,278015.800,711411.900,638225.600,711269.300,711738.100,303351.700,639352.200,0.000
295084.700,278209.600,711431.300,638197.900,711288.400,711757.400,303104.100,638646.300,0.000
295845.500,279037.200,711474.400,639182.500,711331.600,711800.600,303668.800,638539.600,0.000
296155.300,279403.400,711485.900,639638.000,711343.500,711812.100,303892.400,638185.300,0.000
295849.800,279086.500,711462.900,639083.900,711320.700,711788.800,303339.200,637261.400,0.000
296060.900,279304.100,711474.300,639209.100,711331.800,711800.000,303286.400,636714.900,0.000
296886.300,280199.900,711521.700,640386.400,711379.100,711847.300,304080.000,636805.200,0.000
297339.400,280718.800,711537.100,641164.800,711394.600,711863.300,304628.700,636715.300,0.000
296954.400,280318.400,711502.800,640623.800,711360.500,711829.300,304163.800,635865.400,0.000
296856.500,280201.100,711497.900,640360.100,711355.100,711823.900,303872.000,635140.100,0.000
297432.300,280815.600,711535.000,641158.600,711392.100,711861.200,304408.100,635043.300,0.000
297779.000,281207.100,711547.200,641759.900,711404.500,711873.400,304838.800,634873.900,0.000
297212.900,280609.300,711504.900,640948.200,711362.400,711831.200,304176.600,633891.400,0.000
296755.900,280096.700,711479.100,640089.000,711336.500,711804.900,303426.700,632837.900,0.000
297114.000,280465.500,711508.000,640449.100,711365.700,711834.100,303609.200,632480.100,0.000
297574.600,280967.800,711529.400,641132.900,711386.900,711855.500,304082.200,632337.300,0.000
297278.100,280656.600,711506.800,640694.800,711364.100,711832.600,303715.100,631583.400,0.000
296931.000,280266.900,711492.300,640004.600,711349.600,711818.100,303122.800,630670.700,0.000
297364.600,280713.100,711522.800,640487.800,711380.000,711848.600,303428.800,630428.300,0.000
297996.300,281398.300,711556.000,641456.300,711413.100,711881.900,304153.300,630493.000,0.000
297846.900,281253.600,711540.000,641310.100,711397.600,711866.400,304050.900,629945.100,0.000
297327.000,280684.800,711505.300,640431.100,711362.800,711831.600,303335.900,628942.600,0.000
297505.300,280861.600,711521.000,640535.700,711377.600,711846.600,303356.000,628494.400,0.000
298071.800,281480.100,711554.900,641372.300,711412.100,711880.900,303976.800,628501.700,0.000
297969.900,281397.700,711541.300,641291.500,711399.000,711867.700,303921.400,628006.400,0.000
297326.400,280706.200,711503.100,640234.300,711360.500,711829.000,303068.300,626914.900,0.000
297276.400,280637.300,711501.500,639976.900,711358.900,711827.400,302785.600,626238.800,0.000
297828.900,281235.800,711540.000,640718.000,711397.300,711866.100,303316.400,626181.900,0.000
297885.600,281320.000,711538.400,640845.800,711395.500,711864.100,303413.400,625801.800,0.000
297224.000,280615.800,711492.600,639786.300,711349.600,711818.300,302561.500,624714.900,0.000
297077.100,280439.800,711488.200,639341.300,711345.400,711813.600,302152.300,623960.900,0.000
297607.200,281004.400,711527.100,640014.000,711384.000,711852.700,302635.300,623870.400,0.000
297838.900,281271.400,711541.800,640376.900,711398.800,711868.100,302926.100,623621.900,0.000
297258.600,280660.200,711506.900,639447.300,711363.800,711833.300,302203.800,622600.600,0.000
296969.200,280337.500,711492.300,638798.100,711348.900,711817.900,301650.000,621695.600,0.000
297460.000,280857.200,711526.900,639372.100,711383.600,711852.400,302061.300,621527.200,0.000
297880.300,281324.400,711548.300,640004.100,711405.600,711874.100,302567.800,621444.700,0.000
297521.200,280950.000,711523.500,639445.600,711380.300,711849.200,302165.200,620690.200,0.000
297324.400,280720.300,711523.500,638952.900,711379.500,711848.600,301788.900,619954.300,0.000
297880.200,281305.000,711556.300,639660.600,711412.600,711881.600,302343.900,619888.800,0.000
298528.500,282013.400,711582.400,640691.300,711439.300,711908.300,303213.600,620056.100,0.000
298376.000,281862.400,711558.800,640538.100,711416.000,711884.600,303194.700,619574.600,0.000
298087.600,281536.800,711539.600,640003.300,711396.700,711865.200,302854.900,618864.700,0.000
298568.400,282029.800,711575.300,640608.100,711432.200,711901.100,303406.000,618834.200,0.000
299325.900,282838.800,711615.900,641782.800,711473.100,711941.600,304458.600,619180.900,0.000
299312.200,282836.800,711605.800,641880.700,711463.200,711931.600,304714.300,618930.600,0.000
298903.500,282384.900,711581.100,641227.900,711438.300,711906.800,304347.100,618214.500,0.000
299188.900,282658.200,711600.800,641550.400,711458.200,711926.900,304710.300,618048.000,0.000
299919.400,283422.600,711645.100,642668.000,711502.600,711971.800,305737.800,618401.200,0.000
300049.100,283563.400,711650.800,642980.900,711507.900,711976.800,306186.200,618336.800,0.000
299525.800,282991.600,711607.900,642202.600,711464.800,711934.000,305742.200,617587.600,0.000
299574.700,283018.000,711607.400,642169.600,711464.400,711933.900,305842.900,617247.100,0.000
300196.100,283668.900,711642.800,643096.600,711500.300,711969.300,306730.400,617500.400,0.000
300372.300,283866.500,711643.200,643482.000,711501.100,711970.100,307245.600,617477.100,0.000
299832.700,283288.000,711605.800,642685.600,711463.800,711932.300,306820.100,616763.600,0.000
299717.700,283138.500,711604.100,642374.100,711462.300,711931.000,306739.100,616316.100,0.000
300267.600,283709.000,711642.100,643128.600,711499.900,711968.900,307520.100,616518.400,0.000
300577.300,284050.000,711657.600,643658.600,711515.300,711984.600,308175.700,616628.700,0.000
300093.800,283537.700,711626.800,642930.100,711484.300,711952.800,307836.100,615990.700,0.000
299819.900,283228.300,711611.800,642364.600,711469.000,711937.700,307574.200,615398.400,0.000
300248.200,283676.800,711635.100,642906.400,711492.800,711961.800,308182.600,615456.500,0.000
300637.800,284107.100,711653.000,643518.900,711510.600,711979.400,308900.900,615611.300,0.000
300208.900,283670.000,711620.900,642891.100,711478.300,711947.200,308650.300,615042.900,0.000
299811.800,283234.500,711603.700,642132.400,711461.100,711930.000,308250.300,614364.900,0.000
300168.800,283601.900,711632.600,642507.400,711489.900,711959.100,308728.800,614339.100,0.000
300671.900,284142.600,711665.400,643237.400,711522.600,711991.700,309529.000,614557.500,0.000
300345.800,283809.700,711634.000,642767.900,711491.000,711960.100,309396.600,614063.900,0.000
299827.500,283252.800,711606.700,641845.600,711463.800,711932.900,308869.700,613282.600,0.000
300033.000,283458.900,711631.100,641967.400,711488.300,711957.100,309142.800,613104.300,0.000
300537.600,284000.100,711662.900,642660.000,711520.300,711989.300,309903.000,613293.300,0.000
300309.000,283774.300,711636.800,642335.500,711494.400,711963.400,309877.100,612893.700,0.000
299687.200,283106.400,711602.100,641252.200,711458.900,711928.200,309211.500,612023.300,0.000
299731.600,283133.900,711615.000,641080.300,711472.100,711940.900,309227.400,611667.100,0.000
300218.200,283652.100,711642.800,641706.800,711500.100,711969.100,309893.400,611793.500,0.000
300229.900,283682.300,711637.400,641715.600,711494.900,711963.700,310108.800,611589.300,0.000
299637.800,283053.000,711603.900,640707.300,711461.100,711929.900,309486.500,610762.600,0.000
299588.000,282981.300,711609.100,640391.400,711466.600,711935.400,309373.600,610316.400,0.000
300117.000,283541.800,711646.600,641042.500,711504.000,711973.100,310046.700,610462.500,0.000
300342.500,283799.000,711652.100,641370.200,711509.600,711978.600,310500.300,610442.300,0.000
299966.500,283406.500,711622.300,640741.500,711479.900,711948.900,310183.800,609844.300,0.000
300023.500,283450.300,711633.900,640626.000,711491.300,711960.100,310249.900,609536.600,0.000
300707.500,284170.500,711675.600,641541.100,711532.900,712001.700,311159.500,609853.600,0.000
301177.300,284681.200,711699.500,642289.400,711557.000,712025.900,312003.000,610135.100,0.000
300830.400,284322.800,711671.700,641777.300,711529.100,711997.900,311843.200,609679.700,0.000
300644.000,284108.500,711660.200,641351.300,711517.900,711986.900,311702.900,609246.700,0.000
301152.200,284624.400,711690.800,641999.100,711548.500,712017.600,312420.700,609460.100,0.000
301628.100,285128.100,711712.900,642740.200,711570.300,712039.400,313265.800,609766.600,0.000
301278.700,284756.000,711681.600,642253.200,711539.200,712008.000,313142.500,609341.600,0.000
300911.800,284344.100,711660.900,641560.600,711518.600,711987.400,312808.800,608766.100,0.000
301246.300,284676.100,711683.400,641907.300,711541.000,712010.000,313291.100,608808.200,0.000
301745.700,285194.500,711710.300,642634.300,711567.800,712036.800,314123.100,609122.400,0.000
301486.700,284921.200,711682.700,642279.800,711540.300,712009.300,314102.700,608800.800,0.000
301005.700,284394.500,711653.300,641425.400,711510.500,711979.400,313637.500,608148.000,0.000
301220.400,284601.000,711677.200,641571.800,711533.900,712003.100,313957.200,608086.300,0.000
301741.900,285150.500,711710.900,642300.600,711568.100,712037.100,314776.600,608403.300,0.000
301635.700,285043.700,711699.000,642148.100,711556.000,712024.600,314917.800,608218.200,0.000
301084.800,284450.100,711664.200,641202.800,711520.800,711989.900,314378.300,607527.900,0.000
301109.700,284455.700,711668.500,641052.000,711525.400,711994.300,314438.700,607280.200,0.000
301597.100,284961.500,711703.300,641696.100,711560.500,712029.200,315172.800,607536.800,0.000
301587.000,284957.600,711695.100,641690.000,711552.300,712021.000,315410.500,607418.800,0.000
300989.200,284319.400,711659.800,640684.600,711516.800,711985.800,314807.400,606674.900,0.000
300888.900,284193.200,711666.500,640288.400,711522.900,711991.900,314650.000,606266.600,0.000
301332.200,284654.700,711700.600,640801.000,711557.200,712026.100,315236.200,606413.600,0.000
301385.900,284725.100,711685.700,640874.900,711542.300,712011.100,315494.100,606297.600,0.000
300785.600,284096.100,711649.200,639881.500,711505.600,711974.500,314876.400,605546.400,0.000
300494.600,283777.200,711637.800,639213.300,711494.100,711963.400,314464.500,604939.600,0.000
300858.700,284154.000,711667.900,639572.700,711523.900,711993.100,314882.900,604952.100,0.000
301083.600,284399.500,711682.500,639849.500,711538.600,712007.300,315277.000,604948.600,0.000
300529.400,283820.600,711644.600,638948.600,711500.400,711969.300,314696.500,604223.800,0.000
300127.300,283383.400,711625.300,638102.000,711481.000,711949.900,314107.100,603498.300,0.000
300417.900,283679.500,711651.500,638305.800,711507.500,711976.500,314365.000,603399.900,0.000
300732.800,284018.100,711670.800,638682.400,711526.700,711995.800,314808.200,603422.100,0.000
300273.100,283548.200,711635.800,637929.800,711491.800,711960.700,314334.300,602751.800,0.000
299762.900,283002.300,711611.100,636930.900,711466.800,711935.600,313608.200,601903.600,0.000
299945.300,283183.800,711632.000,636949.100,711487.900,711956.600,313682.100,601660.800,0.000
300312.500,283581.200,711652.800,637373.400,711508.400,711977.200,314126.700,601688.900,0.000
300016.700,283288.300,711632.800,636846.300,711488.200,711956.800,313825.800,601155.100,0.000
299443.500,282685.800,711599.900,635767.600,711455.200,711923.800,313025.300,600239.900,0.000
299522.900,282767.100,711615.900,635608.600,711471.300,711940.000,312942.200,599852.900,0.000
299970.300,283247.900,711652.100,636105.100,711507.500,711976.500,313424.900,599891.300,0.000
299836.700,283128.200,711644.100,635821.100,711499.700,711968.400,313300.600,599477.100,0.000
299178.700,282438.200,711594.600,634666.000,711450.100,711918.400,312409.800,598479.900,0.000
299109.000,282355.100,711596.300,634289.200,711451.400,711920.000,312113.500,597936.100,0.000
299525.700,282801.000,711628.600,634727.400,711483.600,711952.600,312507.600,597909.600,0.000
299495.000,282787.500,711623.300,634613.700,711478.400,711947.600,312481.800,597563.000,0.000
298862.700,282128.800,711583.100,633512.300,711438.400,711907.400,311610.400,596590.500,0.000
298661.600,281910.400,711577.600,632941.900,711432.600,711901.500,311106.800,595894.600,0.000
299051.400,282321.900,711613.100,633324.900,711467.700,711936.700,311392.900,595791.700,0.000
299171.900,282462.700,711617.400,633430.900,711472.300,711941.200,311491.800,595543.900,0.000
298614.800,281886.500,711585.900,632472.400,711440.500,711909.700,310708.500,594651.500,0.000
298329.900,281575.700,711578.800,631788.700,711433.000,711901.900,310085.800,593883.400,0.000
298662.900,281922.200,711604.400,632079.800,711459.300,711928.100,310260.700,593701.800,0.000
298924.100,282210.500,711617.400,632370.700,711472.100,711941.100,310491.100,593557.300,0.000
298456.100,281731.600,711585.200,631565.200,711439.800,711908.600,309838.000,592752.000,0.000
298089.100,281346.200,711566.000,630754.600,711420.200,711889.300,309139.200,591908.900,0.000
298391.600,281666.000,711591.300,630957.400,711445.400,711914.400,309267.400,591677.400,0.000
298780.500,282090.100,711618.900,631415.000,711472.700,711941.700,309652.800,591640.300,0.000
298462.800,281777.100,711599.400,630849.700,711453.100,711922.400,309222.600,591000.400,0.000
298022.000,281317.100,711577.300,629965.700,711430.900,711899.900,308481.800,590132.500,0.000
298281.900,281589.000,711605.300,630086.900,711459.100,711928.500,308549.500,589880.700,0.000
298712.600,282057.600,711625.800,630619.300,711479.500,711948.700,308986.200,589893.100,0.000
298540.600,281898.100,711608.900,630290.400,711462.900,711932.300,308760.800,589410.300,0.000
298045.500,281386.100,711575.500,629360.300,711429.500,711898.400,308004.300,588513.800,0.000
298165.200,281509.900,711591.600,629291.500,711445.700,711914.300,307921.800,588117.800,0.000
298660.300,282035.300,711626.400,629892.300,711480.400,711949.500,308418.800,588163.000,0.000
298631.300,282022.900,711619.900,629787.200,711473.700,711942.800,308377.500,587816.100,0.000
298141.400,281513.000,711589.600,628875.300,711443.100,711912.100,307646.800,586962.300,0.000
298156.200,281526.000,711594.800,628635.900,711448.100,711917.500,307419.900,586478.400,0.000
298648.300,282046.700,711635.100,629209.100,711488.400,711957.900,307877.900,586506.300,0.000
298744.400,282165.500,711636.200,629315.800,711490.500,711958.900,307994.400,586262.100,0.000
298218.600,281628.800,711598.800,628420.700,711452.400,711921.100,307285.400,585386.900,0.000
298063.300,281458.600,711592.400,627958.100,711445.900,711914.800,306898.300,584745.600,0.000
298494.800,281916.000,711625.400,628433.800,711478.700,711947.900,307298.900,584704.900,0.000
298722.000,282172.500,711637.800,628717.300,711491.300,711960.600,307596.500,584591.900,0.000
298284.900,281726.300,711611.200,627961.900,711464.900,711933.800,307055.600,583863.000,0.000
298074.700,281498.900,711605.400,627410.000,711458.600,711927.600,306637.000,583231.300,0.000
298465.200,281906.800,711631.500,627810.800,711484.900,711953.900,306984.800,583173.500,0.000
298824.600,282290.300,711650.700,628287.900,711504.200,711973.400,307446.000,583201.600,0.000
298465.100,281926.600,711623.300,627709.000,711476.400,711945.500,307064.100,582599.100,0.000
298176.000,281613.800,711613.900,627083.600,711467.300,711935.600,306606.600,581955.900,0.000
298530.600,281970.700,711646.600,627423.400,711500.100,711968.900,306919.500,581899.700,0.000
298961.200,282414.900,711668.500,628028.600,711521.800,711990.600,307488.800,582031.700,0.000
298746.700,282195.100,711647.700,627694.100,711501.300,711969.800,307325.600,581619.100,0.000
298416.600,281834.800,711632.600,627040.600,711485.500,711954.300,306875.000,580995.600,0.000
298703.200,282110.700,711661.100,627290.400,711514.000,711982.900,307143.200,580907.900,0.000
299196.600,282620.200,711685.900,627985.100,711539.300,712008.300,307808.000,581101.500,0.000
299167.800,282594.400,711681.200,627931.000,711534.400,712003.600,307916.700,580885.500,0.000
298787.200,282193.300,711655.800,627247.200,711508.600,711977.700,307491.000,580268.400,0.000
298967.500,282364.800,711670.000,627340.600,711523.100,711991.900,307667.800,580110.600,0.000
299512.700,282922.000,711703.800,628091.500,711557.100,712025.700,308413.100,580389.900,0.000
299586.700,283001.400,711701.300,628220.300,711554.500,712023.300,308704.700,580326.300,0.000
299170.400,282563.000,711675.900,627513.400,711529.400,711997.800,308310.100,579745.800,0.000
299211.900,282588.800,711684.900,627396.300,711539.100,712007.300,308359.000,579494.300,0.000
299713.000,283099.900,711721.300,628061.200,711574.800,712043.600,309056.100,579731.500,0.000
299887.100,283282.300,711725.400,628338.900,711579.100,712048.100,309481.700,579768.300,0.000
299452.700,282826.000,711691.800,627640.300,711545.400,712014.300,309114.200,579217.500,0.000
299386.300,282738.300,711697.100,627350.100,711550.600,712019.600,309044.900,578908.400,0.000
299856.900,283212.700,711738.400,627932.300,711591.900,712060.800,309678.200,579136.100,0.000
300072.800,283436.800,711735.400,628282.700,711589.100,712057.700,310149.600,579217.900,0.000
299652.300,283003.400,711704.300,627632.400,711558.100,712026.800,309834.900,578715.400,0.000
299402.200,282734.800,711695.100,627095.500,711548.900,712017.600,309570.300,578256.000,0.000
299733.700,283067.200,711723.800,627457.400,711577.600,712046.300,310014.600,578338.400,0.000
300060.100,283398.100,711744.100,627916.700,711597.500,712066.200,310571.800,578512.600,0.000
299679.300,283007.300,711710.300,627340.600,711563.600,712032.800,310306.800,578053.900,0.000
299337.100,282641.000,711695.900,626656.600,711548.700,712017.800,309927.900,577517.300,0.000
299627.900,282923.300,711729.400,626905.200,711582.500,712051.300,310277.800,577536.900,0.000
300004.400,283303.800,711751.600,627423.900,711605.200,712074.300,310858.300,577721.100,0.000
299693.900,282989.900,711715.300,626978.100,711568.800,712037.800,310675.400,577318.500,0.000
299266.000,282545.400,711693.000,626186.500,711546.300,712015.100,310187.800,576704.600,0.000
299452.900,282727.600,711717.700,626259.600,711570.600,712039.500,310359.200,576590.400,0.000
299861.900,283152.000,711740.600,626792.200,711593.300,712062.400,310905.900,576741.600,0.000
299745.800,283045.200,711725.100,626602.700,711577.800,712046.800,310895.900,576472.900,0.000
299285.400,282568.400,711701.500,625791.300,711553.900,712023.000,310357.500,575814.900,0.000
299322.400,282593.000,711711.100,625661.000,711563.400,712032.200,310322.300,575540.600,0.000
299677.200,282956.000,711721.500,626112.800,711573.800,712042.700,310743.300,575599.200,0.000
299716.600,283003.600,711728.500,626135.500,711581.300,712050.200,310874.400,575456.300,0.000
299225.800,282499.800,711696.500,625297.800,711548.800,712017.400,310291.600,574760.900,0.000
299173.500,282439.500,711698.800,625004.900,711551.600,712019.900,310106.100,574374.300,0.000
299546.800,282822.700,711719.600,625446.800,711572.200,712040.700,310504.000,574428.100,0.000
299630.600,282924.000,711714.700,625567.300,711567.900,712036.300,310678.400,574314.100,0.000
299154.900,282449.000,711685.200,624785.800,711538.100,712006.900,310131.800,573658.900,0.000
298977.400,282267.400,711682.000,624319.700,711533.900,712003.300,309799.100,573154.300,0.000
299358.300,282660.400,711719.100,624719.100,711571.200,712040.300,310163.700,573178.100,0.000
299539.500,282860.700,711718.600,624971.900,711570.800,712039.400,310428.100,573106.300,0.000
299125.900,282449.300,711688.600,624302.600,711540.400,712009.300,309970.100,572504.800,0.000
298906.900,282222.000,711690.600,623760.900,711542.200,712011.000,309583.400,571977.300,0.000
299152.900,282476.300,711699.400,623979.300,711551.300,712020.200,309774.700,571860.000,0.000
299431.000,282772.300,711704.700,624343.200,711556.100,712025.300,310124.900,571849.800,0.000
299111.900,282467.100,711683.000,623825.700,711534.800,712003.400,309799.200,571318.800,0.000
298789.600,282147.500,711678.100,623147.700,711530.300,711998.900,309323.700,570684.100,0.000
299001.300,282367.000,711700.300,623267.900,711552.200,712020.800,309450.800,570512.100,0.000
299327.400,282714.600,711712.500,623697.600,711564.300,712032.900,309838.700,570538.300,0.000
299144.900,282551.800,711705.400,623388.700,711557.000,712025.700,309682.300,570164.900,0.000
298659.100,282071.300,711669.000,622546.400,711520.400,711988.800,309053.800,569393.900,0.000
298753.000,282170.300,711679.700,622497.200,711531.200,711999.600,309031.400,569079.600,0.000
299140.800,282578.500,711711.400,622985.500,711563.000,712031.900,309463.600,569122.500,0.000
298982.400,282440.100,711685.600,622759.300,711536.900,712005.800,309338.800,568743.200,0.000
298512.200,281972.700,711660.000,621937.500,711511.300,711980.100,308736.700,568029.600,0.000
298522.500,281988.100,711672.800,621750.100,711523.800,711992.600,308609.200,567683.400,0.000
298882.200,282360.100,711699.900,622189.300,711551.000,712019.900,308981.000,567706.900,0.000
298895.200,282384.700,711698.800,622193.400,711550.800,712019.300,309037.400,567481.600,0.000
298389.600,281889.200,711664.200,621354.500,711515.900,711984.400,308405.400,566731.000,0.000
298266.400,281764.000,711661.800,620980.500,711513.000,711982.100,308109.300,566247.600,0.000
298614.000,282116.400,711687.900,621373.300,711539.500,712008.400,308429.800,566250.800,0.000
298742.600,282258.600,711693.700,621539.800,711545.300,712014.300,308604.600,566138.700,0.000
298316.900,281835.200,711667.000,620828.500,711518.200,711986.700,308068.300,565480.400,0.000
298142.200,281649.300,711664.300,620368.100,711515.300,711983.600,307694.000,564945.900,0.000
298460.500,281966.300,711688.300,620699.500,711539.100,712007.900,307943.600,564891.000,0.000
298681.900,282201.300,711700.700,621011.600,711551.800,712020.800,308216.000,564854.400,0.000
298318.600,281830.100,711673.100,620425.200,711524.100,711992.800,307770.600,564273.500,0.000
298064.000,281566.200,711664.000,619860.500,711514.600,711983.500,307308.400,563684.400,0.000
298337.800,281838.400,711688.500,620108.700,711539.600,712008.900,307482.300,563573.400,0.000
298620.600,282125.300,711695.100,620498.100,711546.000,712015.600,307791.100,563553.500,0.000
298382.200,281885.400,711679.500,620093.600,711530.400,711999.500,307497.400,563093.500,0.000
298044.300,281538.200,711662.400,619429.800,711513.000,711982.100,306960.400,562446.000,0.000
298217.100,281705.800,711677.800,619528.100,711528.100,711997.600,307010.300,562238.900,0.000
298581.200,282077.700,711697.300,619999.500,711548.100,712017.100,307386.000,562269.700,0.000
298424.100,281924.300,711682.500,619744.900,711533.100,712002.300,307209.800,561872.400,0.000
298033.200,281531.900,711663.700,619024.300,711513.900,711983.200,306633.800,561172.100,0.000
298122.500,281623.100,711676.700,618985.000,711526.600,711995.800,306578.200,560869.900,0.000
298493.200,281993.700,711700.600,619464.900,711550.600,712019.700,306956.900,560913.300,0.000
298450.900,281952.700,711691.100,619382.900,711541.400,712010.500,306912.500,560647.400,0.000
298032.300,281526.000,711666.300,618645.200,711516.300,711985.900,306323.300,559972.400,0.000
298002.900,281488.600,711666.900,618432.800,711516.800,711986.500,306122.300,559574.800,0.000
298363.300,281849.100,711688.300,618874.700,711538.400,712008.300,306458.200,559576.300,0.000
298441.800,281932.300,711690.400,618968.800,711540.000,712009.600,306551.100,559392.900,0.000
298019.700,281507.900,711665.200,618254.400,711514.600,711983.800,305986.600,558722.300,0.000
297921.800,281405.400,711667.400,617920.800,711516.800,711986.100,305697.400,558274.600,0.000
298255.100,281734.200,711689.800,618304.600,711539.600,712008.900,305978.200,558263.300,0.000
298430.500,281913.000,711699.200,618540.600,711549.100,712017.900,306181.400,558194.700,0.000
298047.200,281529.600,711675.000,617900.900,711524.800,711993.900,305683.700,557585.100,0.000
297819.500,281294.200,711657.900,617391.800,711507.800,711976.500,305248.300,557003.200,0.000
298124.300,281601.000,711681.300,617698.900,711531.300,712000.200,305471.100,556932.000,0.000
298388.300,281875.100,711698.300,618054.300,711548.700,712017.800,305767.500,556925.300,0.000
298053.200,281544.500,711673.700,617517.800,711523.900,711993.300,305352.800,556379.600,0.000
297748.800,281235.400,711657.800,616905.300,711508.000,711977.100,304844.200,555763.800,0.000
298004.600,281490.500,711681.900,617116.700,711532.100,712000.900,304982.800,555644.100,0.000
298332.100,281824.200,711700.400,617547.500,711550.300,712019.400,305323.700,555667.800,0.000
298090.800,281587.400,711678.900,617164.100,711528.800,711998.300,305033.800,555203.600,0.000
297720.400,281212.500,711656.100,616466.300,711505.700,711975.000,304459.900,554525.000,0.000
297909.100,281399.500,711679.900,616562.300,711529.400,711998.800,304506.300,554336.300,0.000
298290.700,281787.700,711706.400,617059.000,711556.100,712025.300,304900.300,554411.300,0.000
298142.900,281646.800,711690.100,616840.100,711539.600,712008.800,304741.200,554058.400,0.000
297735.400,281233.400,711663.100,616104.700,711512.500,711982.100,304144.800,553374.500,0.000
297763.800,281252.900,711661.200,615985.800,711510.500,711980.100,304007.700,553027.400,0.000
298129.600,281618.000,711683.900,616455.700,711533.300,712002.600,304365.600,553065.900,0.000
298136.800,281631.500,711684.400,616445.300,711534.000,712003.100,304379.900,552849.300,0.000
297729.400,281220.600,711663.300,615724.700,711512.600,711981.600,303810.100,552185.900,0.000
297666.300,281150.400,711657.800,615461.900,711506.900,711975.900,303561.500,551751.900,0.000
298046.800,281526.100,711684.600,615914.600,711534.400,712003.100,303901.700,551779.300,0.000
298145.800,281624.300,711685.700,616039.400,711535.400,712004.100,304015.800,551634.200,0.000
297743.100,281215.700,711660.400,615350.200,711509.700,711978.900,303474.900,550992.100,0.000
297603.100,281060.800,711655.400,614958.800,711504.500,711973.400,303133.400,550493.800,0.000
297952.200,281402.800,711682.700,615350.600,711531.800,712000.600,303420.800,550483.500,0.000
298160.600,281615.100,711694.800,615637.100,711543.700,712012.800,303659.600,550435.100,0.000
297776.100,281226.700,711667.000,615013.800,711515.900,711985.100,303178.300,549828.800,0.000
297549.700,280984.100,711656.900,614493.800,711506.400,711975.200,302753.100,549265.900,0.000
297827.400,281253.100,711680.100,614764.000,711529.400,711998.400,302943.200,549177.100,0.000
298092.500,281519.300,711692.100,615123.500,711541.600,712010.500,303234.300,549164.600,0.000
297795.200,281224.000,711673.100,614635.100,711522.800,711991.500,302871.700,548656.900,0.000
297488.200,280914.100,711661.100,614011.100,711510.400,711979.400,302372.900,548042.200,0.000
297677.100,281101.900,711676.400,614139.500,711525.700,711995.000,302452.900,547865.300,0.000
297991.600,281416.400,711694.400,614551.900,711543.800,712013.000,302784.900,547881.200,0.000
297738.400,281170.100,711668.800,614160.100,711518.200,711987.100,302496.400,547414.600,0.000
297350.700,280781.700,711650.600,613430.300,711499.800,711968.900,301926.100,546742.300,0.000
297477.300,280903.400,711666.700,613430.400,711515.700,711984.900,301906.500,546489.100,0.000
297834.900,281262.700,711689.300,613877.800,711538.100,712007.300,302267.400,546524.400,0.000
297733.700,281164.900,711680.600,613687.600,711529.900,711998.900,302151.900,546196.800,0.000
297290.700,280728.300,711656.000,612894.700,711504.900,711973.800,301536.100,545483.400,0.000
297289.800,280732.200,711660.900,612710.900,711509.500,711978.300,301371.000,545110.400,0.000
297618.400,281065.300,711679.800,613113.900,711528.800,711997.100,301682.800,545100.700,0.000
297615.600,281075.000,711675.800,613074.800,711524.600,711993.500,301681.800,544858.400,0.000
297179.700,280642.500,711655.300,612307.000,711504.200,711972.900,301091.600,544168.400,0.000
297117.600,280582.000,711663.200,612006.000,711512.300,711980.900,300840.300,543733.800,0.000
297429.100,280898.700,711678.400,612357.400,711526.900,711995.800,301094.400,543671.200,0.000
297529.500,281008.500,711679.500,612472.800,711527.900,711997.100,301204.400,543505.100,0.000
297073.800,280561.800,711646.400,611715.300,711494.500,711963.700,300618.400,542810.200,0.000
296904.800,280398.000,711648.200,611262.100,711496.100,711965.300,300248.000,542289.800,0.000
297230.200,280727.300,711676.700,611600.900,711525.200,711993.700,300497.200,542243.100,0.000
297463.100,280966.700,711688.300,611903.800,711537.100,712005.400,300742.400,542183.000,0.000
297099.000,280608.400,711662.700,611308.800,711511.300,711979.400,300281.300,541569.800,0.000
296836.500,280343.700,711650.000,610738.600,711498.200,711966.500,299813.000,540949.700,0.000
297098.700,280605.300,711672.200,610974.900,711520.200,711988.800,299977.900,540822.800,0.000
297400.300,280908.500,711688.800,611367.100,711536.900,712005.400,300292.500,540818.600,0.000
297119.600,280627.800,711665.900,610908.600,711513.800,711982.300,299941.800,540306.500,0.000
296782.000,280291.200,711649.400,610256.200,711497.400,711965.800,299410.600,539651.900,0.000
296981.800,280488.800,711667.300,610392.800,711515.400,711983.800,299487.400,539455.400,0.000
297361.700,280869.400,711692.800,610888.700,711540.900,712009.900,299879.200,539505.600,0.000
297202.000,280712.300,711679.300,610623.800,711527.100,711996.100,299691.300,539112.800,0.000
296835.300,280339.700,711658.500,609934.100,711506.200,711975.400,299141.100,538445.800,0.000
296970.600,280471.100,711672.300,609966.400,711520.500,711989.300,299140.000,538200.800,0.000
297373.200,280873.900,711697.800,610490.400,711546.200,712014.600,299550.100,538270.100,0.000
297326.800,280829.500,711691.300,610409.900,711539.800,712008.600,299511.700,537992.100,0.000
296901.700,280400.000,711661.100,609679.900,711509.100,711978.000,298932.400,537293.900,0.000
296935.600,280425.300,711667.300,609563.100,711515.200,711983.600,298813.000,536951.300,0.000
297345.400,280836.400,711696.500,610082.600,711544.500,712013.000,299218.000,537018.200,0.000
297408.100,280904.900,711695.300,610177.000,711543.800,712012.400,299317.400,536847.600,0.000
296986.200,280482.100,711664.900,609478.100,711513.000,711981.700,298781.400,536188.700,0.000
296921.400,280411.400,711666.400,609209.100,711514.600,711983.500,298557.300,535770.400,0.000
297295.000,280787.200,711693.400,609669.600,711541.600,712010.300,298917.300,535800.200,0.000
297489.500,280987.900,711705.100,609947.100,711553.300,712022.100,299172.200,535752.900,0.000
297102.300,280601.900,711673.600,609321.800,711521.600,711989.600,298703.000,535142.800,0.000
296959.400,280453.100,711666.400,608932.400,711514.400,711982.700,298393.200,534658.100,0.000
297324.100,280815.800,711696.500,609353.000,711544.300,712013.100,298724.000,534674.600,0.000
297596.200,281089.200,711707.400,609757.500,711555.300,712024.100,299075.300,534705.300,0.000
297296.100,280787.900,711686.600,609293.900,711534.600,712003.100,298751.800,534223.800,0.000
297078.200,280563.200,711678.900,608808.000,711527.100,711995.600,298381.000,533702.800,0.000
297350.900,280826.000,711695.600,609090.300,711543.900,712012.600,298601.500,533627.000,0.000
297678.200,281151.400,711708.800,609567.100,711556.800,712025.500,299004.900,533694.100,0.000
297457.700,280933.800,711693.100,609236.900,711541.200,712009.300,298800.600,533304.500,0.000
297152.500,280627.100,711684.300,608650.800,711532.100,712000.300,298372.500,532747.100,0.000
297332.400,280800.800,711697.300,608794.900,711545.100,712013.600,298487.000,532598.300,0.000
297709.900,281179.000,711715.600,609329.900,711563.300,712031.800,298934.700,532704.900,0.000
297580.500,281055.500,711700.300,609155.600,711547.500,712016.400,298851.200,532404.600,0.000
297179.300,280655.800,711674.900,608477.400,711521.900,711990.600,298348.600,531782.600,0.000
297321.400,280793.600,711696.800,608534.300,711544.100,712012.400,298409.500,531605.100,0.000
297744.100,281214.800,711726.300,609107.400,711574.400,712042.600,298891.300,531750.400,0.000
297719.600,281197.900,711716.900,609096.300,711564.900,712033.100,298945.700,531562.900,0.000
297299.900,280782.000,711692.300,608409.000,711539.600,712008.300,298448.900,530951.900,0.000
297286.800,280763.500,711690.800,608248.600,711537.800,712006.800,298333.600,530626.700,0.000
297669.700,281146.300,711712.600,608759.600,711559.900,712028.700,298764.000,530725.100,0.000
297769.300,281251.600,711716.600,608926.400,711564.300,712032.900,298961.600,530650.800,0.000
297367.400,280856.900,711694.000,608278.000,711541.400,712010.200,298509.100,530079.100,0.000
297277.800,280766.000,711694.400,607993.300,711541.800,712010.600,298310.700,529700.900,0.000
297649.500,281135.300,711725.400,608458.700,711572.600,712040.900,298707.700,529782.300,0.000
297845.300,281335.300,711732.700,608758.900,711580.200,712048.500,299005.300,529782.700,0.000
297449.800,280939.800,711698.300,608152.100,711545.800,712014.300,298579.400,529222.400,0.000
297249.300,280740.100,711691.800,607708.900,711539.100,712007.600,298256.700,528746.200,0.000
297573.600,281064.300,711718.400,608078.300,711565.700,712034.400,298576.800,528769.500,0.000
297851.900,281347.000,711733.400,608493.100,711580.800,712049.600,298962.800,528841.100,0.000
297546.300,281046.300,711710.400,608030.100,711557.800,712026.100,298667.500,528387.900,0.000
297256.400,280754.900,711691.900,607461.700,711539.100,712007.400,298249.800,527836.500,0.000
297506.800,280997.700,711708.900,607706.700,711556.400,712024.900,298458.600,527771.500,0.000
297868.900,281359.200,711732.900,608222.400,711580.600,712049.000,298917.200,527907.400,0.000
297669.000,281162.100,711718.300,607930.000,711565.600,712034.400,298756.500,527569.300,0.000
297318.800,280807.000,711696.400,607293.700,711543.100,712011.900,298295.500,526994.500,0.000
297496.500,280974.800,711712.300,607419.100,711559.100,712027.800,298414.900,526868.400,0.000
297898.300,281370.800,711742.800,607978.600,711589.900,712058.500,298900.800,527031.100,0.000
297780.900,281254.500,711728.700,607823.800,711575.500,712044.400,298848.100,526772.100,0.000
297386.400,280860.400,711705.900,607134.600,711552.700,712021.100,298356.700,526181.400,0.000
297454.900,280920.800,711714.000,607087.800,711560.900,712029.300,298342.800,525953.500,0.000
297839.400,281299.400,711735.800,607611.900,711583.100,712051.800,298786.000,526074.600,0.000
297863.500,281325.500,711734.900,607660.800,711582.600,712051.300,298890.600,525936.100,0.000
297443.500,280908.400,711708.400,606968.900,711555.400,712024.600,298398.800,525336.400,0.000
297414.300,280872.800,711709.500,606767.600,711556.800,712025.600,298260.700,525013.300,0.000
297804.700,281256.300,711735.100,607266.400,711582.200,712050.900,298678.300,525133.000,0.000
297930.800,281382.800,711740.400,607465.800,711587.300,712056.300,298895.800,525099.100,0.000
297509.700,280961.300,711710.500,606804.600,711557.200,712026.000,298429.900,524526.400,0.000
297383.100,280828.100,711708.400,606465.700,711554.900,712023.600,298188.000,524121.300,0.000
297735.600,281174.800,711734.000,606890.400,711580.700,712049.400,298542.200,524178.000,0.000
297960.900,281399.400,711746.800,607225.100,711593.600,712062.100,298860.400,524215.300,0.000
297590.300,281032.000,711721.100,606653.800,711567.900,712036.900,298472.100,523713.700,0.000
297350.000,280790.100,711707.600,606152.200,711553.900,712023.200,298107.600,523228.300,0.000
297649.800,281083.000,711733.100,606478.900,711579.500,712049.200,298386.100,523240.800,0.000
297948.600,281379.000,711748.000,606904.500,711594.900,712064.000,298773.400,523327.500,0.000
297648.300,281079.700,711724.800,606451.800,711571.800,712040.900,298484.500,522891.000,0.000
297327.500,280761.400,711706.800,605841.600,711553.900,712022.900,298039.600,522340.500,0.000
297544.300,280974.100,711723.600,606029.800,711570.600,712039.400,298205.500,522272.500,0.000
297886.900,281319.400,711743.900,606512.500,711590.700,712059.600,298631.300,522406.900,0.000
297688.400,281130.100,711730.100,606221.100,711576.800,712045.700,298474.300,522086.400,0.000
297306.200,280752.100,711709.900,605532.300,711556.800,712025.500,297981.800,521495.600,0.000
297428.300,280870.800,711721.900,605562.800,711568.300,712037.100,298026.200,521309.000,0.000
297805.600,281247.400,711744.500,606068.500,711590.900,712059.800,298462.900,521434.800,0.000
297715.300,281161.100,711735.200,605942.700,711581.600,712050.700,298432.700,521214.400,0.000
297283.900,280737.300,711710.100,605208.800,711556.400,712025.100,297908.400,520618.900,0.000
297333.300,280785.200,711719.800,605114.900,711566.000,712034.700,297854.500,520383.000,0.000
297729.400,281176.500,711747.000,605629.700,711592.900,712062.100,298287.500,520515.500,0.000
297748.100,281197.400,711742.400,605670.700,711588.500,712057.700,298380.300,520378.200,0.000
297307.400,280758.900,711713.200,604945.700,711558.900,712028.200,297864.600,519772.500,0.000
297243.900,280695.300,711714.200,604685.000,711559.900,712028.900,297683.900,519421.000,0.000
297613.800,281065.700,711738.900,605148.800,711585.200,712054.600,298069.800,519508.600,0.000
297774.800,281234.700,711746.300,605385.100,711592.800,712061.900,298315.800,519502.200,0.000
297368.800,280834.900,711721.100,604736.400,711567.400,712036.100,297863.700,518975.300,0.000
297211.400,280673.200,711718.800,604345.700,711565.100,712033.400,297582.800,518577.800,0.000
297557.900,281009.700,711744.300,604750.700,711590.500,712058.900,297922.700,518638.000,0.000
297807.200,281259.800,711754.800,605113.600,711601.000,712069.700,298264.200,518671.700,0.000
297467.700,280927.800,711732.900,604583.000,711578.800,712047.800,297919.700,518176.600,0.000
297225.300,280686.800,711723.900,604067.800,711569.900,712038.600,297554.600,517688.000,0.000
297506.500,280964.300,711745.000,604364.800,711591.100,712060.100,297800.400,517694.800,0.000
297839.400,281297.100,711765.400,604843.900,711611.400,712080.500,298223.600,517844.400,0.000
297573.400,281032.700,711742.300,604449.300,711588.000,712056.800,297978.800,517456.400,0.000
297255.300,280712.600,711726.900,603845.300,711572.600,712041.100,297547.400,516901.500,0.000
297461.000,280912.700,711741.900,604018.600,711587.800,712056.300,297705.800,516792.600,0.000
297855.300,281304.900,711767.000,604567.100,711613.100,712081.200,298181.500,516957.100,0.000
297684.000,281140.400,711748.500,604333.900,711594.400,712062.800,298058.200,516691.300,0.000
297276.000,280733.300,711723.100,603633.500,711569.300,712037.600,297551.700,516145.400,0.000
297397.500,280847.900,711735.800,603664.100,711581.600,712050.400,297594.200,516003.500,0.000
297817.900,281262.200,711763.700,604228.100,711609.100,712078.100,298076.100,516162.000,0.000
297782.800,281229.600,711756.600,604192.800,711602.000,712070.800,298117.800,515959.000,0.000
297360.000,280807.800,711730.800,603487.800,711576.700,712045.300,297619.700,515353.700,0.000
297397.600,280837.500,711740.200,603383.500,711585.900,712054.800,297562.200,515124.400,0.000
297783.200,281214.300,711758.100,603897.100,711603.700,712072.700,297986.600,515287.100,0.000
297872.000,281303.200,711759.900,604037.400,711605.900,712074.700,298160.800,515261.900,0.000
297448.900,280883.300,711733.400,603355.700,711579.300,712047.900,297686.800,514712.300,0.000
297373.300,280800.400,711732.900,603084.000,711578.900,712047.500,297502.700,514360.300,0.000
297771.800,281189.900,711760.900,603577.600,711606.900,712075.600,297918.300,514476.000,0.000
297973.400,281386.800,711772.600,603880.600,711618.900,712087.200,298216.400,514519.800,0.000
297572.000,280984.500,711742.900,603264.600,711588.900,712057.700,297794.000,514020.500,0.000
297394.600,280799.700,711735.600,602856.400,711581.300,712050.500,297502.500,513622.400,0.000
297746.300,281143.700,711762.100,603272.400,711607.600,712076.600,297847.600,513709.100,0.000
298040.100,281435.700,711776.900,603709.400,711622.700,712091.400,298244.300,513829.200,0.000
297694.500,281095.100,711745.900,603203.800,711592.100,712060.600,297911.000,513381.600,0.000
297417.100,280817.100,711731.800,602662.800,711577.600,712046.300,297526.700,512897.100,0.000
297701.600,281094.500,711754.800,602971.500,711600.800,712069.100,297792.600,512919.600,0.000
298091.500,281480.300,711778.600,603537.600,711625.100,712093.400,298288.200,513126.200,0.000
297870.400,281263.100,711760.300,603236.000,711606.600,712075.200,298127.000,512822.200,0.000
297529.100,280920.800,711740.900,602622.200,711586.900,712055.600,297699.500,512307.700,0.000
297752.200,281133.800,711760.500,602809.900,711606.100,712075.100,297881.900,512266.400,0.000
298169.800,281545.800,711783.800,603397.700,711629.100,712098.400,298397.900,512482.000,0.000
298035.700,281416.400,711766.800,603239.100,711612.100,712081.200,298355.200,512265.000,0.000
297633.700,281015.200,711742.800,602565.300,711588.500,712057.400,297897.300,511731.500,0.000
297745.500,281118.000,711754.600,602593.100,711600.100,712068.900,297953.800,511594.000,0.000
298181.700,281548.500,711782.600,603192.600,711628.000,712096.800,298473.300,511816.300,0.000
298167.700,281537.900,711775.700,603215.300,711621.600,712090.300,298573.100,511712.200,0.000
297729.200,281099.800,711745.400,602513.800,711590.800,712060.000,298093.700,511164.600,0.000
297742.800,281104.400,711756.600,602383.600,711602.100,712071.100,298036.100,510944.600,0.000
298157.100,281512.600,711785.200,602930.800,711631.200,712099.800,298512.600,511136.500,0.000
298258.700,281615.900,711784.900,603110.600,711631.000,712099.400,298733.600,511132.400,0.000
297809.100,281172.000,711753.900,602416.300,711599.400,712068.100,298268.800,510600.900,0.000
297685.800,281046.800,711751.200,602084.600,711596.500,712065.000,298056.500,510260.800,0.000
298041.200,281395.200,711772.300,602517.300,711618.100,712086.600,298433.400,510372.200,0.000
298249.900,281605.100,711783.100,602831.700,711628.700,712097.400,298754.900,510446.000,0.000
297838.200,281198.900,711755.400,602208.100,711600.800,712069.900,298347.000,509958.600,0.000
297607.300,280972.000,711746.400,601719.400,711592.300,712061.200,298013.700,509528.100,0.000
297922.100,281286.300,711771.900,602067.700,711618.000,712086.600,298322.800,509595.600,0.000
298216.100,281583.500,711787.800,602494.900,711633.700,712102.400,298721.800,509734.200,0.000
297871.300,281247.100,711762.400,601993.200,711607.700,712076.800,298408.800,509323.300,0.000
297521.300,280902.800,711741.400,601353.100,711586.700,712055.400,297955.300,508796.400,0.000
297743.800,281124.300,711759.500,601552.900,711604.800,712073.400,298137.100,508756.700,0.000
298097.700,281484.300,711780.400,602050.700,711626.000,712094.800,298582.600,508923.400,0.000
297857.900,281253.400,711762.600,601709.200,711608.500,712077.300,298393.400,508604.800,0.000
297455.100,280855.800,711740.900,600996.300,711586.700,712055.000,297885.800,508045.300,0.000
297586.500,280986.500,711753.400,601050.800,711598.900,712067.300,297948.200,507923.100,0.000
297988.500,281388.400,711781.400,601594.200,711627.300,712095.600,298416.700,508124.100,0.000
297861.900,281266.500,711769.200,601423.900,711614.700,712082.700,298352.600,507907.300,0.000
297397.500,280805.600,711740.900,600651.200,711586.300,712054.300,297797.800,507304.000,0.000
297439.600,280843.700,711746.600,600559.800,711592.100,712060.100,297741.200,507083.600,0.000
297855.000,281254.500,711776.100,601099.300,711621.300,712089.700,298191.600,507265.500,0.000
297859.400,281264.600,711771.600,601121.900,711616.600,712085.400,298268.200,507167.600,0.000
297374.200,280784.300,711737.900,600350.400,711582.900,712051.400,297710.800,506577.400,0.000
297319.200,280727.900,711742.400,600112.900,711587.100,712055.400,297538.700,506281.700,0.000
297714.500,281116.800,711768.200,600604.400,711613.100,712082.000,297939.100,506421.300,0.000
297842.300,281246.100,711772.100,600802.100,711617.100,712085.800,298147.000,506413.600,0.000
297393.600,280805.000,711746.100,600107.400,711591.000,712059.800,297656.300,505872.700,0.000
297228.200,280638.200,711742.000,599712.200,711587.100,712055.800,297365.100,505481.900,0.000
297579.800,280984.000,711765.800,600125.900,711611.000,712079.900,297694.400,505570.600,0.000
297816.700,281225.300,711779.100,600478.300,711624.300,712093.000,298013.200,505656.900,0.000
297412.300,280826.500,711751.100,599875.800,711595.800,712064.600,297594.100,505168.000,0.000
297154.800,280567.500,711739.800,599342.600,711584.800,712053.800,297202.300,504694.500,0.000
297467.400,280873.000,711764.600,599667.000,711608.900,712078.300,297466.800,504733.000,0.000
297792.700,281194.600,711783.800,600126.400,711628.300,712097.400,297864.400,504878.000,0.000
297470.800,280880.500,711758.400,599660.300,711603.500,712072.300,297555.700,504478.100,0.000
297113.400,280526.600,711740.100,599006.100,711584.800,712053.800,297074.200,503940.600,0.000
297338.400,280746.100,711759.300,599192.900,711604.100,712073.100,297230.100,503895.000,0.000
297721.600,281128.700,711783.400,599723.000,711628.700,712097.600,297676.000,504077.500,0.000
297492.900,280909.500,711762.600,599412.100,711607.100,712076.200,297486.900,503763.600,0.000
297055.100,280478.200,711735.300,598665.100,711579.800,712048.600,296937.000,503166.300,0.000
297195.500,280613.300,711751.400,598709.200,711595.900,712064.600,296981.700,503029.900,0.000
297610.000,281023.800,711776.900,599260.300,711621.400,712090.100,297431.300,503207.100,0.000
297523.600,280943.700,711768.700,599158.300,711613.300,712081.600,297402.400,503017.400,0.000
297060.200,280487.700,711742.300,598400.100,711586.900,712055.400,296851.700,502423.600,0.000
297091.800,280517.600,711749.100,598284.300,711593.600,712062.100,296769.400,502192.400,0.000
297505.800,280927.700,711775.300,598820.800,711619.500,712088.400,297198.000,502357.900,0.000
297565.500,280991.800,711776.500,598919.600,711621.100,712089.900,297325.300,502293.700,0.000
297100.400,280534.700,711749.300,598179.200,711593.500,712062.500,296798.000,501717.500,0.000
297008.600,280442.700,711750.200,597888.800,711594.300,712063.100,296585.600,501377.200,0.000
297400.200,280829.200,711772.900,598364.600,711617.300,712085.800,296964.700,501497.100,0.000
297562.200,280999.100,711780.700,598614.200,711625.300,712093.600,297208.200,501518.800,0.000
297109.500,280557.800,711753.000,597930.800,711597.300,712065.600,296728.900,500978.000,0.000
296935.900,280385.700,711749.700,597507.900,711593.800,712062.600,296423.500,500567.900,0.000
297280.400,280727.100,711770.300,597898.800,711614.700,712083.600,296732.400,500629.800,0.000
297524.300,280974.300,711778.400,598263.700,711622.300,712091.100,297052.100,500704.800,0.000
297137.700,280600.200,711754.100,597693.900,711597.700,712066.400,296665.400,500240.800,0.000
296854.900,280324.500,711744.700,597137.300,711588.300,712057.100,296262.400,499759.700,0.000
297150.000,280615.600,711767.300,597433.800,711611.400,712080.200,296496.500,499764.600,0.000
297502.100,280966.900,711788.400,597924.800,711632.600,712100.900,296910.800,499909.100,0.000
297213.700,280689.700,711765.700,597508.100,711609.600,712078.100,296643.500,499526.400,0.000
296813.900,280299.800,711740.600,596813.800,711584.200,712052.800,296132.000,498951.900,0.000
297021.400,280502.800,711758.200,596967.600,711601.900,712070.600,296257.700,498872.000,0.000
297433.400,280911.300,711783.100,597519.900,711627.400,712096.100,296714.500,499046.800,0.000
297260.200,280747.300,711769.700,597285.400,711613.500,712082.200,296589.300,498774.900,0.000
296817.000,280312.300,711744.500,596546.800,711588.300,712056.700,296052.000,498185.000,0.000
296939.300,280433.000,711759.400,596565.700,711603.300,712071.900,296074.700,498025.300,0.000
297372.600,280862.600,711786.900,597141.000,711630.900,712100.100,296541.500,498212.000,0.000
297331.000,280828.300,711781.600,597107.400,711625.400,712094.300,296567.700,498060.300,0.000
296852.400,280359.800,711751.900,596349.900,711595.600,712063.900,296018.500,497462.600,0.000
296856.200,280360.400,711756.300,596199.600,711600.000,712068.900,295910.600,497204.800,0.000
297281.900,280779.700,711783.600,596747.300,711627.300,712096.500,296344.800,497364.700,0.000
297370.800,280873.600,711784.800,596897.600,711628.400,712097.400,296508.000,497315.200,0.000
296888.000,280402.100,711750.600,596158.500,711594.400,712063.100,295974.100,496723.100,0.000
296774.500,280289.900,711749.400,595842.200,711592.900,712061.900,295738.000,496362.800,0.000
297165.800,280673.700,711772.800,596317.600,711616.600,712085.500,296109.800,496475.600,0.000
297373.500,280881.100,711782.800,596627.600,711627.000,712095.700,296392.400,496527.400,0.000
296955.200,280469.400,711760.100,595994.800,711603.400,712072.200,295953.600,496019.800,0.000
296739.800,280252.200,711752.100,595534.800,711595.300,712064.200,295613.400,495577.600,0.000
297076.100,280578.300,711769.500,595914.600,711612.800,712081.800,295906.200,495622.600,0.000
297367.700,280866.800,711782.500,596342.000,711625.800,712094.900,296270.500,495732.800,0.000
297012.400,280516.600,711757.900,595832.000,711601.600,712070.400,295924.300,495301.800,0.000
296701.800,280208.600,711746.400,595251.900,711590.200,712058.800,295498.200,494806.000,0.000
296992.500,280489.300,711771.900,595536.800,711615.300,712083.900,295723.400,494812.800,0.000
297369.300,280862.100,711792.700,596066.100,711636.100,712104.900,296163.100,494982.900,0.000
297110.500,280606.100,711772.200,595709.100,711615.600,712084.600,295937.000,494637.600,0.000
296696.000,280194.400,711744.500,595003.800,711588.100,712056.500,295417.500,494060.600,0.000
296895.700,280389.700,711764.300,595146.900,711607.500,712076.000,295538.200,493984.300,0.000
297323.300,280813.600,711791.300,595728.400,711635.100,712103.600,296013.600,494184.200,0.000
297186.200,280683.000,711778.200,595555.400,711622.000,712090.500,295928.300,493950.200,0.000
296728.400,280232.600,711753.300,594811.300,711596.700,712065.600,295386.600,493357.200,0.000
296811.200,280312.600,711760.400,594783.400,711603.400,712072.300,295371.600,493167.300,0.000
297257.200,280752.500,711788.900,595367.900,711631.800,712100.700,295843.800,493366.100,0.000
297227.800,280727.100,711777.900,595358.800,711621.100,712089.900,295882.000,493232.800,0.000
296728.800,280234.000,711739.600,594579.300,711582.800,712051.600,295312.100,492627.200,0.000
296715.300,280217.400,711744.900,594398.900,711588.200,712056.700,295181.300,492360.100,0.000
297155.400,280646.600,711776.700,594956.100,711620.100,712088.500,295628.300,492537.600,0.000
297284.700,280777.900,711782.500,595160.600,711625.800,712094.700,295836.500,492532.300,0.000
296819.500,280324.300,711754.600,594458.900,711597.400,712066.400,295342.600,491987.300,0.000
296677.700,280183.400,711752.800,594110.600,711595.600,712064.400,295087.400,491629.600,0.000
297078.700,280571.100,711784.900,594596.300,711627.800,712096.600,295474.100,491775.200,0.000
297307.900,280795.400,711792.800,594945.600,711635.300,712104.500,295781.800,491852.900,0.000
296887.400,280378.600,711764.900,594331.400,711607.300,712076.600,295349.300,491350.700,0.000
296640.600,280133.800,711754.100,593835.900,711596.300,712066.000,294983.100,490893.800,0.000
296966.000,280450.000,711775.800,594200.500,711618.700,712088.100,295265.500,490942.600,0.000
297296.700,280776.300,711796.300,594681.000,711639.200,712108.800,295671.200,491098.500,0.000
296952.300,280438.700,711770.600,594195.800,711613.300,712082.600,295340.400,490684.200,0.000
296618.900,280109.100,711756.200,593586.000,711598.900,712067.600,294890.500,490179.700,0.000
296876.900,280360.200,711778.600,593831.800,711621.200,712090.300,295083.800,490164.900,0.000
297262.100,280742.400,711801.000,594376.400,711643.300,712112.300,295532.300,490343.800,0.000
297016.200,280503.500,711777.700,594053.300,711620.200,712089.100,295327.200,490013.900,0.000
296592.700,280084.400,711753.300,593339.700,711595.800,712064.900,294801.700,489440.000,0.000
296764.800,280249.000,711771.400,593434.600,711613.800,712083.100,294882.400,489342.300,0.000
297187.800,280663.500,711795.200,594004.000,711637.900,712107.100,295344.200,489542.500,0.000
297085.400,280567.500,711784.600,593883.900,711627.400,712096.600,295298.900,489356.500,0.000
296622.600,280110.000,711758.400,593138.800,711601.000,712070.100,294753.400,488777.900,0.000
296678.800,280158.000,711769.300,593072.600,711612.100,712080.800,294706.100,488576.700,0.000
297110.400,280585.800,711794.800,593638.800,711637.300,712106.100,295159.300,488761.700,0.000
297150.800,280632.500,711795.600,593723.300,711637.900,712107.100,295274.100,488694.800,0.000
296668.000,280158.200,711767.100,592984.200,711609.800,712078.700,294738.300,488126.000,0.000
296600.600,280090.100,711768.600,592748.600,711611.300,712080.000,294559.600,487830.700,0.000
297001.700,280485.500,711792.500,593262.600,711635.400,712104.200,294963.800,487981.700,0.000
297143.000,280629.900,711794.900,593490.200,711637.800,712106.300,295183.000,487991.600,0.000
296705.100,280202.000,711769.800,592819.900,711612.600,712080.900,294713.000,487473.500,0.000
296538.500,280034.400,711766.500,592432.700,711609.100,712077.800,294427.800,487091.900,0.000
296915.100,280401.400,711792.700,592880.800,711634.500,712103.900,294780.000,487204.700,0.000
297164.500,280649.100,711801.200,593257.200,711643.000,712112.400,295104.000,487298.400,0.000
296762.200,280252.500,711773.800,592672.400,711616.000,712085.300,294695.300,486830.400,0.000
296489.300,279979.700,711759.900,592138.900,711602.300,712071.000,294299.500,486365.000,0.000
296811.500,280294.000,711784.600,592486.900,711626.900,712095.700,294576.700,486421.600,0.000
297172.100,280649.100,711808.100,592998.800,711650.900,712119.800,295010.100,486603.600,0.000
296853.000,280334.700,711782.800,592554.900,711625.400,712094.200,294715.700,486217.600,0.000
296480.200,279967.800,711760.900,591896.600,711603.300,712072.000,294229.600,485678.900,0.000
296705.000,280189.400,711779.400,592092.300,711621.400,712090.600,294383.000,485637.300,0.000
297111.000,280593.100,711804.100,592656.600,711646.600,712115.400,294848.500,485841.900,0.000
296913.600,280401.800,711788.100,592399.800,711630.500,712099.600,294700.200,485572.200,0.000
296492.300,279983.700,711767.600,591692.400,711609.800,712078.900,294185.300,485020.200,0.000
296626.200,280109.800,711783.400,591744.900,711625.800,712094.900,294231.000,484893.900,0.000
297054.100,280532.300,711808.300,592322.500,711650.500,712119.800,294696.000,485093.900,0.000
296991.900,280478.600,711799.600,592256.700,711641.700,712110.900,294694.700,484940.400,0.000
296524.600,280019.800,711769.700,591508.000,711612.100,712080.900,294146.800,484361.900,0.000
296545.300,280035.000,711775.600,591395.900,711617.800,712087.000,294062.600,484137.100,0.000
296983.700,280466.200,711806.900,591969.800,711649.400,712118.600,294525.000,484338.100,0.000
297035.600,280522.600,711802.400,592080.400,711645.000,712113.800,294658.700,484282.700,0.000
296569.000,280065.700,711776.300,591360.700,711618.300,712087.200,294146.300,483735.900,0.000
296472.900,279967.900,711771.100,591072.300,711612.800,712081.800,293927.800,483408.300,0.000
296889.500,280378.200,711802.400,591596.400,711644.400,712113.600,294344.700,483580.400,0.000
297067.800,280559.500,711810.900,591878.900,711653.200,712122.300,294610.100,483635.900,0.000
296633.800,280131.800,711781.900,591225.200,711624.100,712093.000,294151.400,483129.900,0.000
296441.400,279940.400,711773.800,590802.100,711616.000,712084.500,293837.700,482729.200,0.000
296792.100,280284.000,711797.400,591213.800,711639.700,712108.400,294164.700,482822.100,0.000
297064.100,280556.800,711811.800,591622.200,711654.100,712123.300,294526.500,482950.400,0.000
296688.200,280192.400,711784.100,591076.400,711626.300,712095.300,294156.000,482517.200,0.000
296394.800,279903.200,711772.500,590520.500,711613.900,712083.200,293748.300,482051.300,0.000
296696.600,280195.600,711798.900,590838.500,711640.800,712109.800,294001.800,482092.300,0.000
297049.000,280547.100,711816.200,591342.500,711658.600,712127.000,294427.800,482262.500,0.000
296755.400,280261.900,711789.400,590942.900,711631.600,712100.300,294169.500,481907.000,0.000
296388.300,279899.700,711773.800,590296.300,711616.100,712084.800,293697.400,481392.300,0.000
296591.500,280095.600,711791.200,590459.000,711633.700,712102.200,293827.800,481341.100,0.000
297003.800,280502.700,711815.800,591027.900,711658.300,712126.700,294299.100,481552.900,0.000
296838.400,280344.300,711799.000,590820.600,711641.900,712110.300,294191.500,481318.700,0.000
296396.300,279905.400,711774.700,590093.900,711617.200,712086.100,293662.300,480755.300,0.000
296501.300,280000.600,711785.000,590100.600,711627.200,712096.500,293673.000,480602.100,0.000
296939.200,280430.400,711813.100,590684.600,711655.600,712124.800,294149.300,480814.600,0.000
296900.800,280394.900,711806.800,590665.400,711649.000,712117.900,294183.300,480689.800,0.000
296425.700,279923.300,711776.400,589916.100,711618.000,712087.400,293633.600,480115.400,0.000
296430.000,279923.800,711781.300,589770.800,711623.400,712092.400,293528.300,479880.900,0.000
296865.200,280352.500,711813.900,590334.400,711656.100,712124.800,293984.100,480082.800,0.000
296932.000,280421.700,711808.900,590475.300,711650.500,712119.800,294135.800,480039.500,0.000
296467.200,279967.500,711778.600,589769.400,711620.500,712089.300,293628.300,479495.500,0.000
296362.600,279865.200,711780.700,589472.200,711622.600,712091.600,293409.500,479177.500,0.000
296754.200,280250.300,711804.800,589954.500,711646.900,712116.000,293790.900,479317.900,0.000
296967.400,280465.500,711812.700,590275.900,711655.600,712124.200,294085.000,479396.100,0.000
296556.100,280064.500,711787.600,589663.100,711629.900,712098.400,293657.600,478922.100,0.000
296314.900,279827.900,711774.200,589190.100,711615.900,712084.900,293301.900,478493.200,0.000
296670.600,280179.100,711801.700,589592.300,711643.400,712112.700,293623.600,478592.300,0.000
296970.500,280478.600,711817.400,590034.400,711659.300,712128.400,294007.800,478739.000,0.000
296610.900,280128.100,711789.200,589526.100,711631.400,712100.100,293662.900,478322.100,0.000
296296.900,279820.300,711773.400,588936.500,711615.500,712084.100,293225.400,477833.800,0.000
296575.400,280093.600,711797.900,589212.800,711640.500,712109.100,293447.500,477855.400,0.000
296951.000,280468.400,711818.700,589744.800,711661.400,712130.300,293894.700,478054.300,0.000
296707.000,280231.500,711800.900,589412.800,711642.800,712111.900,293690.500,477754.500,0.000
296315.100,279848.600,711780.900,588737.300,711622.900,712091.500,293193.600,477223.300,0.000
296500.300,280028.500,711798.100,588869.200,711640.100,712108.600,293302.700,477155.500,0.000
296909.300,280431.600,711820.900,589437.700,711662.500,712131.400,293764.500,477361.000,0.000
296776.900,280305.000,711808.600,589286.800,711650.400,712119.800,293693.000,477158.400,0.000
296326.300,279860.300,711781.700,588564.300,711623.600,712092.600,293157.700,476597.400,0.000
296406.800,279932.900,711791.900,588545.700,711633.600,712102.300,293140.400,476434.300,0.000
296838.200,280356.600,711819.400,589128.400,711661.500,712130.800,293605.700,476644.200,0.000
296841.900,280360.700,711815.300,589170.400,711657.300,712126.500,293682.800,476559.400,0.000
296388.300,279911.300,711790.300,588454.600,711632.400,712101.700,293165.000,476019.400,0.000
296350.400,279871.200,711792.300,588259.100,711634.300,712103.900,293020.900,475757.800,0.000
296755.100,280268.700,711814.900,588780.300,711656.900,712126.400,293435.700,475927.400,0.000
296878.000,280391.400,711819.100,588982.200,711661.100,712130.300,293641.000,475943.200,0.000
296424.800,279944.000,711792.300,588291.900,711634.300,712103.600,293150.600,475425.600,0.000
296288.500,279805.400,711790.600,587942.300,711632.300,712101.600,292895.200,475085.700,0.000
296676.300,280182.500,711816.400,588402.800,711658.000,712127.400,293265.500,475229.300,0.000
296929.100,280432.400,711830.100,588767.000,711672.100,712141.400,293600.800,475349.200,0.000
296510.500,280015.300,711799.000,588156.100,711640.900,712109.700,293171.800,474874.300,0.000
296255.200,279757.500,711787.900,587656.300,711629.300,712098.400,292802.300,474444.100,0.000
296578.700,280070.200,711811.600,588011.200,711652.900,712122.300,293087.700,474520.300,0.000
296889.800,280378.700,711825.600,588464.900,711666.700,712135.800,293477.900,474676.800,0.000
296573.500,280068.300,711805.600,588017.100,711646.800,712116.000,293185.800,474315.000,0.000
296238.700,279735.000,711788.000,587407.200,711629.300,712098.800,292738.000,473826.400,0.000
296493.000,279983.900,711806.600,587644.200,711648.100,712117.300,292930.400,473830.900,0.000
296880.400,280364.300,711830.300,588189.100,711671.800,712140.800,293387.000,474043.700,0.000
296666.500,280154.000,711814.400,587902.300,711655.400,712124.400,293219.000,473777.200,0.000
296246.800,279736.800,711789.400,587201.400,711630.700,712099.500,292704.900,473241.100,0.000
296390.500,279874.200,711800.900,587276.800,711642.100,712111.100,292768.300,473146.500,0.000
296811.300,280289.000,711826.000,587850.800,711667.400,712136.600,293241.400,473370.400,0.000
296721.800,280202.000,711816.300,587748.600,711657.800,712126.900,293217.400,473212.800,0.000
296276.800,279758.700,711792.300,587022.600,711633.400,712102.600,292691.900,472668.500,0.000
296327.300,279806.000,711801.500,586949.500,711642.400,712111.700,292644.200,472488.100,0.000
296752.100,280224.000,711827.200,587510.800,711668.400,712137.300,293099.000,472699.400,0.000
296786.100,280261.500,711825.800,587590.200,711666.900,712135.900,293213.000,472653.400,0.000
296337.800,279821.600,711800.800,586883.300,711641.800,712111.100,292708.500,472131.800,0.000
296302.700,279783.500,711806.400,586678.600,711647.500,712117.100,292562.900,471880.500,0.000
