EEG 1, EEG 2, EEG 3, EEG 4, EEG 5, EEG 6, EEG 7, EEG 8, TRIG
407999.700,-750000.100,14268.550,345490.300,-178496.900,304724.300,264679.100,-283488.900,0.000
508106.500,-750000.100,-334583.800,232974.200,-257401.000,457369.400,38251.080,-242398.000,0.000
710968.300,-469187.400,-368434.600,479217.000,-392294.500,571048.500,-328880.600,-187931.900,0.000
750000.100,10546.270,531606.300,462430.000,7917.882,582337.100,-166233.200,25538.840,0.000
750000.100,620145.400,750000.100,505182.400,385488.300,727843.800,343347.500,331801.800,0.000
750000.100,674237.200,750000.100,750000.100,544033.900,750000.100,541721.900,460130.300,0.000
750000.100,673838.800,750000.100,750000.100,723266.900,750000.100,625449.600,561991.100,0.000
750000.100,673726.900,678872.600,750000.100,673410.300,750000.100,615107.400,642810.800,0.000
750000.100,697177.900,750000.100,750000.100,658298.300,750000.100,589142.500,640958.600,0.000
750000.100,750000.100,750000.100,750000.100,681291.800,750000.100,593891.900,750000.100,0.000
750000.100,750000.100,750000.100,750000.100,750000.100,750000.100,740012.600,750000.100,0.000
750000.100,750000.100,750000.100,750000.100,750000.100,750000.100,750000.100,750000.100,0.000
750000.100,750000.100,750000.100,750000.100,750000.100,750000.100,750000.100,750000.100,0.000
750000.100,750000.100,750000.100,750000.100,750000.100,750000.100,750000.100,750000.100,0.000
750000.100,750000.100,750000.100,750000.100,750000.100,750000.100,750000.100,750000.100,0.000
750000.100,750000.100,750000.100,750000.100,750000.100,750000.100,750000.100,750000.100,0.000
750000.100,750000.100,750000.100,750000.100,750000.100,750000.100,750000.100,750000.100,0.000
750000.100,750000.100,750000.100,750000.100,750000.100,750000.100,750000.100,750000.100,0.000
750000.100,721269.600,750000.100,750000.100,750000.100,750000.100,750000.100,750000.100,0.000
750000.100,692022.800,750000.100,750000.100,750000.100,750000.100,750000.100,750000.100,0.000
722435.700,665427.800,750000.100,750000.100,750000.100,750000.100,750000.100,750000.100,0.000
696523.800,641883.100,750000.100,750000.100,750000.100,750000.100,750000.100,750000.100,0.000
673227.600,620719.700,750000.100,750000.100,750000.100,750000.100,750000.100,750000.100,0.000
651435.400,600949.100,750000.100,750000.100,750000.100,750000.100,750000.100,750000.100,0.000
631093.800,582531.400,750000.100,750000.100,750000.100,750000.100,750000.100,750000.100,0.000
612844.900,566033.000,750000.100,750000.100,750000.100,750000.100,750000.100,750000.100,0.000
596428.300,551182.900,750000.100,750000.100,750000.100,750000.100,750000.100,750000.100,0.000
580939.100,537190.900,750000.100,750000.100,750000.100,750000.100,750000.100,750000.100,0.000
566097.100,523802.300,750000.100,750000.100,750000.100,750000.100,750000.100,750000.100,0.000
552699.100,511739.000,750000.100,750000.100,750000.100,750000.100,750000.100,750000.100,0.000
540680.800,500915.000,750000.100,750000.100,750000.100,750000.100,750000.100,750000.100,0.000
529300.700,490661.800,750000.100,750000.100,750000.100,750000.100,750000.100,750000.100,0.000
518168.400,480643.600,750000.100,750000.100,750000.100,750000.100,750000.100,750000.100,0.000
507972.900,471475.700,750000.100,750000.100,750000.100,750000.100,750000.100,750000.100,0.000
498901.800,463318.100,750000.100,750000.100,750000.100,750000.100,750000.100,750000.100,0.000
490361.000,455642.700,750000.100,750000.100,750000.100,750000.100,750000.100,750000.100,0.000
481835.600,447977.600,750000.100,750000.100,750000.100,750000.100,750000.100,750000.100,0.000
473892.300,440845.200,750000.100,750000.100,750000.100,750000.100,750000.100,750000.100,0.000
466882.300,434551.400,750000.100,750000.100,750000.100,750000.100,750000.100,750000.100,0.000
460342.100,428676.600,750000.100,750000.100,750000.100,750000.100,750000.100,750000.100,0.000
453686.300,422702.100,750000.100,750000.100,750000.100,750000.100,750000.100,750000.100,0.000
447367.600,417041.200,750000.100,750000.100,750000.100,750000.100,750000.100,750000.100,0.000
441843.400,412090.500,750000.100,750000.100,750000.100,750000.100,750000.100,750000.100,0.000
436770.100,407543.300,750000.100,750000.100,750000.100,750000.100,750000.100,750000.100,0.000
431546.600,402857.800,750000.100,750000.100,750000.100,750000.100,750000.100,750000.100,0.000
426392.600,398234.600,750000.100,750000.100,750000.100,750000.100,750000.100,750000.100,0.000
421915.300,394226.700,750000.100,750000.100,750000.100,750000.100,750000.100,750000.100,0.000
417915.600,390644.000,750000.100,750000.100,750000.100,750000.100,750000.100,750000.100,0.000
413786.800,386941.700,750000.100,750000.100,750000.100,750000.100,750000.100,750000.100,0.000
409558.100,383157.400,750000.100,750000.100,750000.100,750000.100,750000.100,750000.100,0.000
405868.500,379862.700,750000.100,750000.100,750000.100,750000.100,750000.100,750000.100,0.000
402665.200,376998.700,750000.100,750000.100,750000.100,750000.100,750000.100,750000.100,0.000
399377.300,374055.800,750000.100,750000.100,750000.100,750000.100,742247.100,750000.100,0.000
395872.400,370921.500,750000.100,750000.100,750000.100,750000.100,732385.000,750000.100,0.000
392789.600,368172.500,750000.100,750000.100,750000.100,750000.100,723106.100,750000.100,0.000
390205.600,365863.600,750000.100,750000.100,750000.100,750000.100,714602.800,750000.100,0.000
387626.300,363558.300,750000.100,750000.100,750000.100,750000.100,706349.900,750000.100,0.000
384693.300,360933.600,750000.100,750000.100,750000.100,750000.100,697855.800,750000.100,0.000
382072.300,358600.200,750000.100,750000.100,750000.100,750000.100,689776.000,750000.100,0.000
379950.300,356714.600,750000.100,750000.100,750000.100,750000.100,682426.700,750000.100,0.000
377897.000,354883.200,750000.100,750000.100,750000.100,750000.100,675366.300,750000.100,0.000
375495.100,352736.100,750000.100,750000.100,750000.100,750000.100,668060.800,750000.100,0.000
373236.100,350729.900,750000.100,750000.100,750000.100,750000.100,660964.600,750000.100,0.000
371460.200,349155.000,750000.100,750000.100,750000.100,750000.100,654533.100,750000.100,0.000
369824.500,347699.200,750000.100,750000.100,750000.100,750000.100,648448.600,750000.100,0.000
367846.100,345935.600,750000.100,750000.100,750000.100,750000.100,642117.400,750000.100,0.000
365876.000,344189.200,750000.100,750000.100,750000.100,750000.100,635827.100,750000.100,0.000
364361.200,342849.400,750000.100,750000.100,750000.100,750000.100,630130.200,750000.100,0.000
363047.200,341684.100,750000.100,750000.100,750000.100,750000.100,624821.100,750000.100,0.000
361446.400,340258.700,750000.100,750000.100,750000.100,750000.100,619328.000,750000.100,0.000
359715.500,338722.500,750000.100,750000.100,750000.100,750000.100,613715.800,750000.100,0.000
358402.900,337568.600,750000.100,750000.100,750000.100,750000.100,608615.600,750000.100,0.000
357362.900,336651.800,750000.100,750000.100,750000.100,750000.100,603965.400,750000.100,0.000
356077.900,335508.500,750000.100,750000.100,749977.300,750000.100,599170.400,750000.100,0.000
354563.300,334166.600,748474.100,748535.300,748242.900,748739.300,594145.600,749159.900,0.000
353370.900,333118.000,746833.000,746894.100,746602.300,747097.400,589500.100,747517.800,0.000
352528.300,332378.800,745287.300,745348.600,745057.600,745551.400,585360.200,745971.800,0.000
351530.400,331498.700,743798.300,743859.500,743568.900,744061.700,581187.600,744482.400,0.000
350200.700,330324.300,742350.800,742412.000,742122.100,742613.800,576676.900,743034.000,0.000
349123.800,329378.400,740983.000,741043.800,740755.400,741245.600,572438.800,741665.300,0.000
348419.600,328762.800,739696.400,739757.200,739469.600,739958.800,568712.900,740378.100,0.000
347650.400,328084.300,738461.400,738522.100,738235.100,738723.300,565044.900,739142.800,0.000
346509.400,327075.000,737251.500,737312.500,737025.600,737513.200,561005.800,737932.900,0.000
345516.600,326208.500,736107.400,736168.700,735881.900,736368.800,557113.800,736788.600,0.000
344919.100,325691.800,735040.600,735102.000,734815.900,735301.900,553733.300,735721.500,0.000
344330.800,325179.400,734015.300,734076.100,733790.600,734276.100,550485.900,734695.300,0.000
343348.800,324313.600,733005.600,733067.000,732781.900,733266.300,546869.900,733685.600,0.000
342421.400,323505.700,732048.100,732109.300,731825.100,732308.300,543273.800,732727.900,0.000
341891.900,323051.200,731158.900,731220.000,730935.900,731418.800,540159.600,731838.600,0.000
341458.800,322676.400,730310.100,730370.900,730087.500,730569.800,537272.100,730989.100,0.000
340653.000,321968.900,729470.700,729531.300,729248.300,729729.900,534042.600,730149.300,0.000
339769.300,321197.200,728663.900,728724.500,728441.900,728922.500,530693.800,729342.400,0.000
339264.400,320764.300,727917.500,727978.800,727696.100,728176.300,527783.200,728596.300,0.000
338944.900,320491.800,727213.100,727273.900,726991.500,727471.200,525180.800,727891.500,0.000
338311.900,319936.500,726514.100,726575.100,726293.300,726772.100,522309.400,727192.400,0.000
337476.100,319202.700,725834.100,725895.000,725613.800,726092.100,519194.900,726512.200,0.000
336995.200,318791.200,725211.100,725272.100,724991.000,725469.200,516467.900,725889.000,0.000
336772.800,318609.600,724629.400,724690.400,724409.200,724887.100,514112.800,725307.300,0.000
336311.000,318210.200,724057.000,724117.700,723837.100,724314.700,511583.300,724734.500,0.000
335549.400,317543.800,723488.100,723548.900,723268.700,723745.700,508708.800,724165.600,0.000
335080.700,317144.300,722966.600,723027.200,722747.100,723223.600,506134.900,723643.700,0.000
334895.800,316990.300,722481.000,722541.400,722261.900,722737.800,503954.400,723158.600,0.000
334552.100,316691.100,722002.300,722062.700,721783.800,722259.100,501688.800,722679.600,0.000
333858.100,316085.100,721522.700,721583.200,721304.000,721779.200,499035.100,722199.900,0.000
333363.200,315663.400,721078.300,721139.000,720859.900,721334.800,496565.200,721755.800,0.000
333216.200,315546.800,720678.200,720739.000,720459.800,720934.400,494540.300,721355.800,0.000
332994.200,315355.700,720284.400,720345.000,720066.100,720540.400,492528.400,720961.400,0.000
332382.000,314820.400,719880.200,719940.600,719661.600,720135.900,490099.600,720557.500,0.000
331858.900,314371.900,719501.100,719561.500,719282.800,719756.700,487717.100,720178.500,0.000
331713.900,314255.500,719165.600,719226.100,718947.300,719421.300,485790.000,719843.100,0.000
331606.600,314170.300,718846.700,718907.100,718628.400,719102.500,483998.500,719524.300,0.000
331087.600,313713.800,718509.900,718570.600,718292.200,718765.900,481793.800,719187.800,0.000
330557.500,313258.400,718188.800,718249.400,717971.400,718444.800,479524.300,718866.800,0.000
330410.000,313142.100,717909.100,717969.600,717691.900,718164.800,477690.400,718586.600,0.000
330361.100,313107.600,717642.300,717702.800,717424.900,717897.800,476053.400,718319.800,0.000
329942.300,312742.700,717361.700,717422.300,717144.700,717616.900,474064.300,718039.600,0.000
329416.900,312288.000,717090.100,717150.500,716873.500,717345.100,471904.800,717768.100,0.000
329237.000,312142.100,716854.800,716914.900,716637.800,717109.600,470127.800,717532.400,0.000
329236.100,312151.500,716636.600,716697.000,716419.800,716891.600,468629.400,717314.800,0.000
328928.000,311884.500,716401.700,716462.400,716185.100,716656.700,466854.400,717079.900,0.000
328389.200,311415.800,716167.000,716227.700,715950.600,716422.000,464790.500,716845.100,0.000
328172.500,311239.600,715966.000,716027.000,715749.900,716221.200,463049.800,716644.600,0.000
328207.100,311284.600,715786.900,715847.900,715570.600,716042.400,461652.600,716465.800,0.000
328017.500,311126.300,715599.900,715661.100,715383.500,715855.300,460086.900,716278.600,0.000
327508.600,310682.700,715402.100,715463.400,715186.000,715657.100,458146.800,716081.000,0.000
327254.700,310475.000,715230.200,715291.500,715014.300,715485.000,456449.800,715909.500,0.000
327296.500,310531.700,715083.100,715144.100,714867.200,715337.900,455146.900,715762.300,0.000
327193.300,310447.900,714928.100,714988.900,714712.200,715183.200,453754.500,715607.500,0.000
326690.500,309994.700,714757.300,714818.000,714541.600,715012.100,451898.800,715436.800,0.000
326393.300,309741.600,714608.600,714669.400,714393.200,714863.200,450208.800,715288.400,0.000
326450.700,309812.800,714485.600,714546.400,714269.900,714740.200,448970.700,715165.300,0.000
326431.500,309806.300,714362.800,714423.800,714147.000,714617.300,447744.600,715042.800,0.000
325977.500,309398.100,714214.000,714275.300,713998.700,714468.400,446026.500,714894.100,0.000
325636.200,309105.300,714085.400,714146.700,713869.900,714339.800,444358.500,714765.800,0.000
325684.500,309171.700,713989.300,714050.100,713773.700,714243.900,443170.000,714669.300,0.000
325735.200,309234.600,713891.300,713951.800,713675.600,714145.500,442074.100,714571.300,0.000
325344.800,308883.500,713765.300,713826.300,713550.100,714019.800,440509.000,714446.100,0.000
324937.100,308523.500,713645.400,713706.300,713430.300,713899.600,438846.900,714326.300,0.000
324938.200,308544.800,713562.300,713622.800,713347.100,713816.100,437649.200,714242.700,0.000
325053.600,308666.100,713485.700,713546.300,713270.800,713739.800,436671.800,714166.800,0.000
324770.900,308413.000,713382.000,713442.500,713166.900,713636.000,435289.800,714062.600,0.000
324341.100,308030.300,713276.500,713337.300,713061.400,713530.400,433670.200,713957.500,0.000
324293.300,308008.900,713205.900,713266.300,712991.100,713459.800,432468.600,713886.900,0.000
324426.600,308148.900,713144.600,713205.100,712929.500,713398.700,431560.200,713825.600,0.000
324232.500,307977.800,713063.100,713123.600,712847.700,713317.000,430343.500,713744.000,0.000
323775.000,307569.900,712966.500,713026.900,712751.400,713220.300,428765.100,713647.700,0.000
323672.200,307495.300,712901.600,712962.300,712686.800,713155.600,427545.200,713583.400,0.000
323833.400,307658.400,712856.700,712917.300,712641.900,713110.800,426703.800,713538.500,0.000
323738.000,307578.700,712792.600,712853.100,712577.700,713046.700,425645.700,713474.500,0.000
323294.500,307178.400,712710.900,712771.700,712496.400,712965.200,424152.000,713393.100,0.000
323125.700,307042.700,712652.100,712713.100,712438.100,712906.500,422906.800,713334.600,0.000
323276.900,307198.600,712614.600,712674.900,712399.800,712868.600,422084.900,713296.700,0.000
323265.900,307195.600,712564.200,712624.900,712349.500,712818.400,421166.000,713246.700,0.000
322847.400,306816.300,712491.100,712551.600,712276.600,712745.300,419767.800,713173.400,0.000
322627.100,306631.300,712437.600,712497.900,712222.800,712691.500,418510.700,713119.800,0.000
322754.800,306764.100,712408.300,712468.900,712193.800,712662.300,417694.800,713091.100,0.000
322819.500,306831.200,712373.000,712433.400,712158.700,712626.900,416898.300,713056.000,0.000
322464.900,306507.200,712311.600,712371.900,712097.200,712565.300,415621.400,712994.600,0.000
322175.200,306252.300,712258.900,712319.600,712044.900,712512.900,414336.900,712942.400,0.000
322256.000,306340.200,712230.500,712291.200,712016.400,712484.700,413502.000,712914.100,0.000
322385.800,306471.300,712205.600,712266.600,711991.400,712460.200,412812.000,712889.500,0.000
322091.300,306203.100,712151.800,712212.100,711936.900,712405.800,411664.400,712835.300,0.000
321760.200,305908.600,712104.900,712165.400,711890.300,712358.700,410385.100,712788.400,0.000
321806.000,305967.300,712083.800,712144.300,711869.000,712337.700,409537.400,712767.800,0.000
321974.600,306132.000,712067.900,712128.100,711852.900,712321.300,408918.700,712751.700,0.000
321779.300,305954.800,712030.400,712090.800,711815.600,712284.100,407928.400,712714.300,0.000
321398.400,305611.200,711980.900,712041.400,711766.500,712235.100,406651.700,712665.200,0.000
321374.500,305603.400,711955.100,712015.200,711740.400,712209.100,405756.700,712639.600,0.000
321558.700,305782.800,711942.800,712003.100,711728.100,712196.400,405175.700,712627.000,0.000
321444.100,305680.300,711912.800,711972.800,711698.100,712166.500,404314.500,712597.400,0.000
321052.900,305327.300,711868.900,711928.900,711654.600,712122.900,403078.700,712553.800,0.000
320976.000,305269.900,711847.300,711907.600,711632.800,712100.900,402152.100,712532.200,0.000
321167.800,305457.300,711842.800,711902.800,711628.200,712096.100,401602.900,712527.700,0.000
321130.100,305426.700,711820.200,711879.700,711605.400,712073.700,400867.700,712505.100,0.000
320738.100,305071.000,711776.300,711835.600,711561.600,712029.700,399681.300,712461.400,0.000
320591.100,304947.400,711753.300,711813.100,711539.000,712007.300,398709.200,712438.800,0.000
320780.100,305129.300,711754.300,711813.800,711539.900,712008.000,398171.600,712439.900,0.000
320839.900,305183.800,711742.400,711801.900,711527.800,711996.100,397566.200,712428.000,0.000
320461.600,304834.600,711698.600,711757.900,711484.100,711952.400,396448.300,712384.200,0.000
320247.500,304649.200,711672.300,711731.400,711457.300,711925.700,395428.700,712357.200,0.000
320390.000,304791.300,711669.100,711728.400,711454.400,711922.900,394854.100,712354.600,0.000
320513.400,304910.700,711663.800,711723.300,711449.600,711917.500,394340.800,712349.300,0.000
320199.600,304619.300,711628.900,711688.600,711414.400,711882.400,393333.800,712314.800,0.000
319931.200,304380.200,711605.200,711664.600,711390.700,711859.100,392294.200,712291.400,0.000
320048.200,304501.400,711607.500,711666.400,711393.100,711861.300,391708.000,712293.700,0.000
320219.800,304671.400,711610.100,711668.300,711394.900,711862.900,391272.300,712295.900,0.000
319972.600,304448.300,711582.200,711640.300,711367.000,711835.300,390391.200,712267.800,0.000
319640.100,304150.300,711553.000,711611.400,711338.100,711806.200,389323.100,712239.100,0.000
319693.800,304214.300,711550.600,711609.300,711336.400,711804.200,388684.500,712236.900,0.000
319891.400,304406.500,711556.600,711615.300,711342.100,711810.100,388298.600,712242.900,0.000
319725.000,304253.600,711534.400,711592.800,711319.600,711787.600,387540.700,712220.700,0.000
319368.100,303929.300,711504.300,711562.600,711289.600,711757.400,386483.200,712190.600,0.000
319358.900,303931.100,711500.600,711559.100,711286.000,711753.900,385794.600,712187.100,0.000
319577.900,304144.300,711510.900,711569.300,711296.100,711764.000,385440.500,712197.300,0.000
319503.700,304075.100,711498.400,711556.800,711283.800,711751.400,384811.100,712185.000,0.000
319126.100,303727.800,711465.700,711523.900,711251.400,711718.600,383773.500,712152.900,0.000
319051.300,303671.300,711458.800,711516.500,711244.000,711711.500,383026.700,712145.800,0.000
319257.300,303873.700,711466.500,711524.000,711251.700,711719.200,382667.700,712153.300,0.000
319267.300,303887.600,711460.000,711517.800,711245.000,711712.800,382159.500,712147.100,0.000
318897.100,303544.800,711431.100,711489.100,711216.300,711684.600,381178.100,712118.600,0.000
318750.100,303422.100,711420.300,711477.900,711205.400,711673.100,380378.300,712107.800,0.000
318948.200,303617.700,711430.600,711488.300,711215.800,711683.400,380015.500,712118.300,0.000
319041.900,303709.800,711433.500,711491.300,711218.900,711686.900,379613.600,712121.400,0.000
318695.300,303390.800,711405.600,711463.200,711191.300,711658.500,378702.200,712093.600,0.000
318479.800,303202.000,711390.000,711447.800,711175.700,711643.300,377855.700,712078.300,0.000
318637.900,303358.900,711399.100,711457.100,711185.000,711652.500,377457.900,712087.400,0.000
318787.600,303503.000,711404.000,711461.500,711189.600,711657.100,377132.600,712091.800,0.000
318496.100,303231.400,711376.100,711433.500,711161.800,711628.900,376312.600,712063.900,0.000
318215.800,302981.000,711354.900,711411.800,711140.400,711607.700,375415.100,712042.500,0.000
318324.000,303093.600,711363.500,711420.400,711148.900,711616.400,374973.200,712051.600,0.000
318530.300,303291.600,711379.400,711436.500,711164.600,711632.900,374729.800,712067.600,0.000
318329.800,303106.000,711362.000,711419.100,711147.100,711615.300,374043.800,712050.100,0.000
318002.700,302807.800,711338.600,711394.900,711123.800,711591.700,373132.600,712026.800,0.000
318054.200,302868.300,711345.400,711401.800,711130.900,711598.300,372636.700,712033.700,0.000
318274.900,303083.200,711361.400,711417.900,711146.700,711614.300,372418.000,712049.800,0.000
318145.700,302967.000,711348.700,711405.100,711134.200,711601.600,371847.300,712037.000,0.000
317772.800,302629.800,711320.300,711376.800,711105.900,711573.400,370926.800,712008.800,0.000
317753.500,302627.700,711322.700,711379.100,711108.400,711575.900,370364.300,712011.800,0.000
317985.100,302852.400,711339.300,711395.700,711124.900,711592.500,370154.700,712028.100,0.000
317937.600,302807.200,711332.600,711388.800,711117.800,711585.300,369691.400,712021.100,0.000
317572.700,302468.800,711307.900,711364.100,711093.600,711561.200,368804.500,711997.300,0.000
317489.400,302400.700,711303.400,711359.400,711088.900,711557.000,368171.600,711992.600,0.000
317716.900,302620.200,711321.400,711377.500,711107.100,711574.900,367958.700,712010.800,0.000
317764.000,302664.700,711319.400,711375.400,711104.900,711572.600,367613.300,712008.900,0.000
317403.100,302331.400,711291.600,711347.700,711077.400,711544.900,366772.300,711981.400,0.000
317248.600,302199.500,711286.300,711341.900,711071.900,711539.500,366087.300,711975.900,0.000
317455.000,302399.800,711305.900,711361.200,711091.200,711558.900,365852.700,711995.100,0.000
317574.100,302517.800,711312.800,711368.300,711098.300,711566.300,365604.500,712002.300,0.000
317242.300,302212.200,711282.900,711338.300,711068.500,711536.400,364831.300,711972.800,0.000
317015.100,302009.300,711271.400,711326.300,711056.600,711524.400,364088.500,711961.300,0.000
317169.800,302163.300,711286.300,711341.500,711071.900,711539.600,363799.600,711976.300,0.000
317342.900,302328.900,711295.700,711351.200,711081.300,711549.100,363610.500,711985.700,0.000
317091.500,302096.000,711279.200,711334.000,711064.400,711531.900,362952.600,711969.300,0.000
316811.500,301844.800,711265.700,711320.300,711050.900,711518.800,362175.700,711955.900,0.000
316912.100,301949.100,711275.100,711329.600,711060.300,711528.600,361828.800,711964.900,0.000
317119.800,302151.000,711285.800,711340.200,711071.000,711539.100,361686.000,711975.600,0.000
316935.600,301981.400,711272.000,711326.300,711057.500,711525.100,361135.500,711962.300,0.000
316615.600,301687.000,711253.200,711307.400,711038.400,711506.400,360337.500,711943.300,0.000
316670.900,301747.200,711262.500,711316.800,711047.800,711516.100,359945.000,711952.900,0.000
316916.300,301984.100,711283.900,711337.400,711068.700,711537.000,359846.200,711973.800,0.000
316819.900,301896.800,711274.600,711328.400,711059.600,711528.100,359410.500,711965.100,0.000
316464.000,301569.600,711249.100,711302.900,711034.300,711502.400,358607.300,711939.800,0.000
316453.300,301570.400,711254.900,711309.000,711040.400,711508.200,358145.300,711946.200,0.000
316686.300,301793.600,711273.500,711327.600,711059.100,711526.900,358031.500,711964.700,0.000
316672.000,301780.600,711268.700,711322.500,711054.100,711521.800,357702.900,711959.700,0.000
316315.800,301451.600,711246.500,711300.300,711031.900,711499.600,356932.600,711937.300,0.000
316237.800,301390.100,711249.600,711303.100,711035.300,711502.600,356407.600,711940.400,0.000
316451.300,301592.600,711264.600,711317.900,711050.000,711517.700,356268.800,711955.300,0.000
316503.100,301643.000,711263.600,711316.900,711049.000,711516.800,356025.800,711954.600,0.000
316174.300,301341.000,711240.900,711294.100,711026.600,711494.100,355311.100,711932.100,0.000
316013.100,301200.900,711235.400,711288.400,711020.800,711488.300,354710.700,711926.700,0.000
316205.800,301387.700,711252.800,711306.100,711038.400,711506.300,354550.400,711944.300,0.000
316350.100,301526.500,711262.900,711315.800,711048.600,711516.500,354410.200,711954.300,0.000
316061.000,301258.300,711244.700,711297.300,711030.100,711498.200,353771.800,711936.300,0.000
315837.400,301056.500,711237.000,711289.100,711022.500,711490.500,353115.000,711928.700,0.000
315990.600,301206.600,711250.000,711301.300,711035.800,711503.400,352901.300,711941.600,0.000
316194.200,301402.400,711263.600,711315.100,711049.900,711517.600,352826.800,711955.500,0.000
315979.800,301204.400,711251.500,711302.100,711038.200,711505.400,352295.700,711943.900,0.000
315669.400,300919.300,711230.800,711280.200,711017.500,711485.400,351575.000,711923.900,0.000
315758.700,301011.500,711241.300,711290.300,711028.600,711496.600,351298.700,711934.800,0.000
315991.500,301232.600,711261.300,711309.200,711048.200,711516.300,351259.800,711954.500,0.000
315843.900,301096.900,711249.700,711297.000,711037.100,711505.100,350825.300,711943.100,0.000
315514.800,300795.100,711230.700,711276.400,711018.800,711486.300,350105.600,711924.400,0.000
315561.300,300848.900,711239.700,711284.900,711028.200,711495.300,349775.700,711933.500,0.000
315801.000,301078.800,711255.800,711301.100,711044.200,711511.600,349749.600,711949.800,0.000
315735.200,301017.100,711250.000,711294.600,711038.400,711506.100,349431.400,711944.600,0.000
315388.800,300695.300,711229.700,711272.600,711019.100,711486.800,348716.800,711925.800,0.000
315341.600,300660.600,711230.100,711272.600,711020.200,711488.100,348287.200,711926.700,0.000
315576.400,300885.200,711246.900,711289.300,711037.100,711504.900,348240.700,711943.600,0.000
315609.000,300917.800,711248.900,711290.600,711039.300,711506.800,348029.800,711945.600,0.000
315257.600,300592.000,711223.300,711263.400,711014.100,711481.900,347340.800,711920.300,0.000
315148.300,300500.400,711221.200,711260.100,711012.300,711480.100,346853.200,711918.600,0.000
315374.700,300718.300,711240.300,711279.100,711032.100,711499.500,346792.900,711938.300,0.000
315473.100,300812.800,711246.100,711284.500,711037.800,711505.500,346663.000,711944.300,0.000
315157.700,300519.800,711226.400,711263.200,711018.300,711486.100,346039.700,711925.200,0.000
314992.300,300373.600,711221.600,711257.700,711014.100,711481.800,345495.700,711920.900,0.000
315177.600,300548.300,711235.900,711271.400,711028.700,711496.400,345383.300,711935.200,0.000
315348.300,300705.500,711248.400,711283.800,711041.400,711509.000,345331.000,711947.900,0.000
315075.700,300448.700,711229.100,711263.200,711022.300,711490.100,344780.100,711928.800,0.000
314825.600,300219.800,711213.300,711246.300,711007.300,711474.900,344159.800,711913.800,0.000
314975.300,300365.100,711228.600,711260.900,711022.800,711490.700,344001.000,711929.600,0.000
315196.500,300574.900,711245.500,711277.500,711039.300,711507.300,344006.100,711946.400,0.000
314996.300,300389.500,711234.100,711265.000,711028.200,711496.000,343560.900,711935.100,0.000
314699.900,300119.200,711216.900,711246.800,711012.300,711479.600,342913.400,711918.800,0.000
314760.800,300181.500,711221.100,711250.300,711017.100,711484.300,342663.500,711923.500,0.000
315006.800,300414.100,711240.100,711268.800,711035.600,711503.100,342687.200,711941.700,0.000
314900.600,300317.000,711232.600,711260.400,711028.200,711495.800,342351.300,711934.900,0.000
314567.600,300007.600,711212.600,711238.900,711008.900,711476.600,341682.000,711916.300,0.000
314592.900,300037.200,711220.400,711245.900,711017.200,711485.000,341383.700,711924.000,0.000
314846.900,300279.600,711239.600,711264.800,711036.400,711504.200,341418.400,711943.300,0.000
314816.200,300250.800,711235.100,711259.800,711032.200,711500.100,341183.900,711939.700,0.000
314474.800,299932.500,711212.900,711236.000,711010.900,711478.400,340535.800,711918.100,0.000
314447.100,299913.100,711219.500,711241.400,711017.800,711485.200,340180.700,711925.100,0.000
314679.100,300130.200,711237.400,711259.400,711035.800,711503.300,340180.600,711943.300,0.000
314726.800,300172.400,711238.700,711260.800,711037.400,711505.300,340040.700,711945.100,0.000
314381.300,299846.500,711214.300,711234.300,711013.100,711481.000,339412.700,711920.600,0.000
314376.100,299880.700,711223.700,711242.400,711022.400,711490.600,339120.000,711930.100,0.000
314975.700,300631.800,711274.400,711294.600,711073.500,711541.400,339848.400,711980.900,0.000
315014.400,300833.800,711277.700,711297.600,711077.000,711544.900,340177.600,711984.600,0.000
314354.300,300256.000,711235.300,711252.900,711035.500,711502.900,339475.000,711942.800,0.000
313889.000,299800.500,711209.800,711225.400,711010.600,711478.300,338692.800,711917.800,0.000
313931.900,299796.000,711220.500,711235.400,711021.900,711489.700,338400.300,711928.900,0.000
314070.100,299881.100,711231.500,711245.900,711032.800,711500.400,338267.800,711940.100,0.000
313836.400,299635.700,711213.600,711226.800,711015.600,711483.100,337736.800,711923.100,0.000
313597.800,299399.700,711200.000,711211.600,711002.600,711470.400,337127.600,711910.300,0.000
313734.400,299506.900,711214.300,711225.100,711017.300,711484.900,336933.000,711924.800,0.000
313974.100,299707.100,711232.200,711242.800,711035.100,711502.800,336928.300,711942.400,0.000
313838.300,299563.400,711219.100,711228.400,711022.300,711489.900,336542.900,711929.300,0.000
313567.100,299301.600,711201.900,711209.500,711006.000,711473.300,335944.800,711912.900,0.000
313656.300,299372.200,711216.400,711223.600,711020.600,711488.300,335718.500,711928.100,0.000
313904.900,299585.400,711234.300,711241.500,711038.400,711505.900,335738.800,711945.900,0.000
313841.900,299511.000,711226.000,711232.400,711030.800,711498.200,335460.600,711938.400,0.000
313547.000,299230.100,711206.900,711211.400,711012.400,711479.900,334866.900,711919.900,0.000
313551.900,299226.200,711210.000,711213.600,711016.200,711483.400,334564.900,711923.500,0.000
313798.300,299440.200,711228.600,711231.900,711034.400,711501.600,334591.200,711941.700,0.000
313828.200,299455.000,711231.600,711234.600,711037.600,711505.100,334429.200,711944.700,0.000
313548.800,299193.400,711217.300,711218.400,711023.600,711491.400,333875.100,711931.400,0.000
313465.900,299114.100,711209.600,711209.400,711017.000,711484.800,333486.000,711924.800,0.000
313688.800,299309.900,711225.600,711224.900,711033.100,711500.900,333483.700,711940.600,0.000
313789.000,299388.600,711232.200,711231.300,711039.900,711507.400,333398.700,711947.600,0.000
313498.200,299114.900,711213.300,711210.400,711021.100,711488.700,332867.200,711929.100,0.000
313365.200,298996.500,711207.900,711203.600,711016.300,711484.300,332448.400,711924.200,0.000
313575.100,299188.100,711229.300,711225.100,711038.000,711505.700,332440.100,711945.900,0.000
313737.400,299331.600,711239.100,711235.100,711047.800,711515.300,332441.100,711955.800,0.000
313472.900,299085.000,711218.600,711212.500,711027.300,711495.100,331973.200,711935.300,0.000
313272.800,298910.000,711208.900,711200.900,711018.600,711486.400,331491.200,711926.300,0.000
313436.700,299063.900,711223.800,711215.200,711033.500,711501.300,331426.200,711941.100,0.000
313641.800,299248.400,711237.100,711228.200,711046.700,711514.300,331477.400,711954.600,0.000
313437.000,299058.000,711222.100,711212.500,711032.600,711500.100,331096.500,711940.400,0.000
313174.900,298825.000,711209.200,711197.800,711020.400,711487.500,330580.500,711928.200,0.000
313273.800,298921.200,711221.000,711208.500,711032.000,711499.300,330450.700,711939.900,0.000
313506.100,299133.500,711237.600,711225.500,711049.000,711516.300,330531.200,711957.000,0.000
313379.400,299013.600,711225.500,711212.300,711037.400,711504.900,330243.300,711945.400,0.000
313081.900,298746.000,711209.000,711193.900,711021.300,711488.800,329700.100,711929.100,0.000
313124.800,298790.200,711216.600,711200.600,711029.100,711496.500,329500.300,711936.900,0.000
313360.800,299003.000,711234.300,711218.400,711046.900,711514.600,329584.000,711954.900,0.000
313332.700,298973.900,711235.500,711218.400,711048.300,711515.800,329414.800,711956.600,0.000
313017.300,298687.400,711215.900,711196.600,711029.700,711497.000,328865.000,711937.900,0.000
312984.400,298660.500,711218.100,711198.000,711032.200,711499.300,328582.500,711940.300,0.000
313212.000,298864.300,711234.000,711213.600,711047.900,711515.300,328642.900,711956.000,0.000
313241.800,298887.400,711231.800,711211.100,711046.100,711513.800,328531.400,711954.300,0.000
312926.100,298596.200,711210.900,711187.900,711025.800,711493.300,328003.800,711934.200,0.000
312844.700,298521.400,711212.100,711187.100,711027.400,711494.900,327666.200,711935.800,0.000
313069.900,298721.400,711229.900,711204.400,711044.900,711512.400,327705.100,711953.400,0.000
313174.200,298811.900,711235.800,711209.600,711050.900,711518.100,327676.900,711958.900,0.000
312884.200,298542.000,711216.700,711188.600,711032.100,711499.600,327197.300,711940.300,0.000
312731.300,298402.800,711211.600,711181.700,711027.700,711494.800,326788.800,711936.200,0.000
312931.000,298587.000,711229.300,711199.300,711045.600,711512.800,326786.500,711953.900,0.000
313097.800,298735.000,711240.400,711210.100,711056.800,711524.300,326824.400,711965.100,0.000
312850.900,298503.700,711224.600,711192.300,711041.600,711509.200,326411.800,711949.700,0.000
312624.600,298294.500,711212.100,711177.300,711029.700,711496.900,325940.800,711937.700,0.000
312770.900,298428.300,711227.000,711191.500,711044.700,711512.200,325882.900,711952.800,0.000
312989.300,298624.200,711241.500,711205.800,711058.800,711526.300,325967.800,711967.000,0.000
312809.800,298454.600,711226.200,711189.000,711044.300,711511.500,325638.200,711953.100,0.000
312550.300,298217.700,711213.700,711172.900,711032.600,711499.700,325146.800,711941.100,0.000
312643.500,298302.600,711225.200,711183.000,711044.000,711511.100,325031.800,711952.200,0.000
312898.800,298533.400,711246.300,711204.600,711065.000,711532.500,325151.700,711973.800,0.000
312806.200,298446.600,711241.800,711197.800,711060.800,711528.100,324930.500,711969.600,0.000
312491.300,298162.800,711220.400,711172.400,711040.100,711507.600,324400.500,711948.700,0.000
312507.700,298178.400,711222.600,711173.100,711042.900,711510.100,324195.700,711951.300,0.000
312763.100,298408.400,711241.800,711192.700,711062.400,711529.400,324313.500,711970.700,0.000
312758.600,298402.100,711244.400,711193.400,711065.000,711531.900,324193.500,711973.400,0.000
312437.900,298110.000,711224.100,711166.900,711045.100,711512.200,323673.700,711953.900,0.000
312407.500,298085.900,711226.600,711165.700,711048.200,711515.400,323414.800,711957.000,0.000
312648.400,298303.500,711247.800,711187.100,711069.600,711536.800,323511.800,711978.100,0.000
312698.200,298343.800,711248.000,711184.800,711070.000,711537.300,323456.400,711978.300,0.000
312385.100,298055.300,711226.200,711145.400,711048.400,711516.100,322962.300,711956.800,0.000
312280.400,297963.800,711222.900,711104.800,711045.600,711512.900,322623.600,711953.900,0.000
312500.000,298163.700,711241.200,711122.800,711063.800,711531.400,322684.600,711972.300,0.000
312631.500,298279.400,711248.600,711075.600,711072.600,711540.000,322715.700,711981.100,0.000
312343.800,298015.000,711214.500,710500.600,711049.500,711516.900,322273.600,711957.400,0.000
312175.100,297866.300,711203.400,709849.800,711043.700,711511.100,321883.100,711951.800,0.000
312371.700,298047.900,711222.200,709772.400,711062.900,711530.400,321909.800,711970.900,0.000
312547.800,298207.900,711233.800,709795.600,711073.900,711541.400,321988.900,711982.300,0.000
312310.200,297986.100,711214.800,709149.200,711056.400,711523.800,321616.200,711964.600,0.000
312076.100,297773.800,711199.200,708316.000,711042.400,711509.800,321162.200,711950.600,0.000
312221.300,297908.400,711216.200,708137.000,711060.100,711527.100,321128.300,711967.900,0.000
312445.800,298111.100,711233.100,708229.400,711076.800,711543.900,321252.200,711984.800,0.000
312284.600,297960.300,711218.900,707663.400,711062.800,711530.400,320974.000,711971.300,0.000
311999.000,297703.900,711199.600,706724.600,711045.100,711512.500,320487.000,711953.500,0.000
312081.300,297784.600,711211.100,706411.900,711056.800,711524.100,320379.600,711964.900,0.000
312325.200,298005.600,711229.300,706522.100,711074.600,711542.200,320517.000,711983.100,0.000
312253.100,297934.800,711224.700,706117.200,711070.800,711537.900,320344.200,711979.600,0.000
311942.600,297655.200,711204.900,705179.000,711052.400,711519.400,319847.300,711960.900,0.000
311951.400,297668.300,711208.500,704744.400,711056.800,711524.000,319655.600,711964.700,0.000
312199.300,297894.000,711224.900,704843.500,711073.100,711540.000,319791.700,711980.900,0.000
312204.400,297898.200,711223.000,704598.300,711071.500,711538.800,319713.700,711979.100,0.000
311881.400,297603.900,711202.900,703713.500,711052.300,711519.600,319229.300,711960.300,0.000
311812.400,297542.800,711199.800,703177.300,711050.000,711516.900,318956.700,711958.000,0.000
312063.200,297770.400,711221.600,703251.400,711071.600,711538.700,319079.100,711979.900,0.000
312148.200,297843.700,711226.200,703143.400,711076.600,711543.900,319081.200,711984.600,0.000
311836.800,297562.300,711204.800,702339.300,711055.900,711523.500,318623.800,711963.900,0.000
311714.500,297457.300,711201.800,701730.800,711054.000,711521.100,318299.900,711962.200,0.000
311924.600,297647.600,711219.900,701736.600,711072.100,711539.600,318373.900,711980.000,0.000
312067.400,297770.500,711226.100,701730.900,711078.300,711545.600,318438.800,711986.100,0.000
311820.500,297544.900,711212.800,701049.700,711065.600,711532.900,318068.200,711973.800,0.000
311629.200,297375.600,711203.800,700347.800,711057.100,711524.200,317678.100,711965.600,0.000
311798.400,297530.400,711215.800,700272.700,711069.200,711536.400,317695.300,711977.600,0.000
312003.800,297713.400,711232.800,700356.600,711085.800,711553.300,317820.700,711993.900,0.000
311791.500,297514.100,711216.400,699771.800,711069.800,711537.600,317494.800,711978.100,0.000
311551.900,297297.800,711201.800,699004.900,711055.900,711523.500,317056.400,711964.300,0.000
311678.700,297412.900,711212.800,698841.400,711067.400,711534.600,317022.700,711975.900,0.000
311910.500,297619.900,711231.500,698964.900,711086.400,711553.800,317177.600,711994.400,0.000
311769.800,297486.600,711219.800,698515.000,711074.600,711542.200,316943.700,711982.900,0.000
311476.300,297217.300,711200.900,697701.800,711056.300,711523.400,316472.000,711964.700,0.000
311547.000,297282.000,711213.100,697438.500,711068.700,711535.400,316370.500,711976.900,0.000
311801.300,297510.800,711230.200,697575.600,711085.600,711552.900,316529.500,711994.300,0.000
311737.200,297446.200,711222.800,697263.900,711078.600,711545.800,316387.500,711987.300,0.000
311441.700,297177.600,711206.800,696459.500,711063.000,711530.600,315924.500,711971.600,0.000
311440.800,297178.300,711209.500,696078.900,711066.300,711533.800,315741.300,711974.700,0.000
311686.900,297400.800,711227.900,696199.300,711084.500,711552.100,315889.900,711993.100,0.000
311712.800,297420.300,711228.800,696033.200,711085.000,711552.700,315848.600,711993.800,0.000
311404.900,297139.600,711209.300,695249.800,711066.300,711533.800,315396.900,711974.900,0.000
311330.400,297076.900,711207.500,694753.400,711064.600,711532.100,315140.200,711973.800,0.000
311568.000,297294.300,711228.300,694834.500,711085.400,711552.500,315268.100,711994.100,0.000
311666.700,297381.800,711235.100,694786.800,711092.400,711559.700,315306.400,712001.200,0.000
311375.000,297115.500,711215.800,694062.100,711073.600,711540.600,314891.200,711982.300,0.000
311238.000,296992.800,711210.600,693468.600,711068.800,711535.600,314568.700,711977.400,0.000
311449.600,297187.800,711230.600,693494.400,711088.800,711556.000,314657.800,711997.300,0.000
311613.100,297336.000,711243.600,693549.400,711101.400,711568.800,314762.700,712010.000,0.000
311350.400,297092.100,711223.600,692907.000,711082.000,711548.900,314394.700,711990.400,0.000
311152.000,296916.500,711215.600,692233.200,711074.400,711541.300,314016.600,711982.100,0.000
311316.300,297069.900,711230.800,692171.400,711089.500,711556.600,314047.300,711998.300,0.000
311522.000,297254.700,711243.100,692287.300,711101.800,711568.800,314194.100,712010.500,0.000
311323.600,297069.400,711226.600,691770.300,711085.800,711552.700,313911.800,711994.100,0.000
311069.800,296841.100,711214.100,691031.500,711073.700,711540.600,313488.000,711982.300,0.000
311183.800,296948.200,711229.500,690878.100,711088.900,711556.200,313457.400,711997.700,0.000
311414.800,297158.100,711244.400,691024.800,711103.300,711570.800,313626.700,712012.300,0.000
311294.700,297042.800,711233.600,690642.600,711092.700,711560.400,313437.100,712001.700,0.000
311005.800,296781.100,711217.900,689868.200,711077.400,711544.800,312985.900,711986.300,0.000
311052.600,296829.700,711223.900,689595.900,711083.700,711551.400,312872.400,711992.300,0.000
311311.600,297068.100,711243.100,689760.600,711102.800,711570.400,313055.400,712011.800,0.000
311281.700,297036.500,711243.200,689527.900,711103.400,711570.400,312971.600,712012.100,0.000
310966.500,296751.200,711223.400,688748.100,711083.600,711551.100,312516.800,711992.300,0.000
310951.000,296743.900,711227.400,688371.300,711087.800,711554.900,312337.800,711996.400,0.000
311198.800,296969.000,711246.700,688509.700,711106.700,711574.000,312500.500,712015.700,0.000
311241.000,297002.500,711249.100,688396.100,711109.200,711576.400,312496.400,712018.100,0.000
310932.200,296720.200,711229.300,687645.300,711089.900,711556.800,312063.300,711998.400,0.000
310847.200,296646.000,711226.400,687154.600,711087.100,711554.300,311806.000,711995.900,0.000
311078.600,296858.800,711246.800,687251.400,711107.200,711574.400,311940.600,712016.300,0.000
311203.800,296972.300,711257.900,687269.100,711118.200,711585.700,312026.200,712027.400,0.000
310920.000,296712.300,711237.800,686592.900,711098.100,711565.400,311639.800,712007.300,0.000
310744.100,296553.700,711225.500,685982.600,711086.000,711553.100,311295.300,711995.300,0.000
310941.700,296737.600,711242.800,686008.400,711103.200,711570.500,311383.800,712012.400,0.000
311114.700,296892.700,711252.900,686097.400,711113.600,711580.900,311512.600,712022.600,0.000
310884.700,296677.800,711237.100,685522.800,711098.200,711565.400,311195.300,712007.100,0.000
310669.300,296483.900,711226.900,684848.000,711088.300,711555.800,310816.200,711997.300,0.000
310818.700,296620.900,711240.100,684780.300,711101.000,711568.600,310841.800,712010.200,0.000
311047.000,296828.400,711256.900,684939.600,711118.000,711585.500,311018.100,712027.300,0.000
310870.100,296666.300,711234.500,684475.600,711104.100,711571.800,310775.600,712013.100,0.000
310604.300,296426.500,711220.100,683779.100,711089.500,711557.100,310354.500,711998.300,0.000
310691.200,296506.000,711230.600,683829.600,711098.100,711565.400,310301.200,712007.100,0.000
310934.000,296728.700,711239.900,684242.000,711113.200,711581.100,310489.800,712022.400,0.000
310858.500,296661.700,711237.400,683968.400,711110.900,711578.300,310361.100,712019.800,0.000
310549.700,296380.600,711229.600,683304.700,711092.700,711560.300,309908.700,712002.000,0.000
310570.400,296399.700,711236.600,683251.600,711098.000,711565.700,309784.200,712007.200,0.000
310813.400,296620.600,711251.300,683644.700,711114.000,711580.900,309961.300,712023.100,0.000
310783.200,296589.900,711243.800,683652.800,711106.800,711573.600,309885.800,712015.700,0.000
310465.900,296300.800,711222.000,683093.100,711083.400,711550.900,309440.000,711992.900,0.000
310423.800,296266.700,711223.100,682884.400,711084.400,711551.600,309239.600,711993.900,0.000
310676.700,296497.300,711243.200,683215.700,711104.500,711571.400,309412.700,712013.900,0.000
310743.000,296554.400,711245.400,683327.800,711106.700,711574.200,309446.900,712016.200,0.000
310444.100,296280.100,711226.800,682780.800,711088.400,711555.600,309037.100,711997.500,0.000
310329.800,296179.200,711222.100,682429.100,711083.800,711550.600,308762.400,711992.900,0.000
310543.000,296374.000,711238.300,682665.900,711100.100,711566.800,308887.100,712009.300,0.000
310673.900,296490.000,711246.500,682855.900,711108.400,711575.400,308987.400,712017.400,0.000
310397.600,296235.900,711226.900,682351.900,711088.500,711556.000,308625.300,711997.900,0.000
310232.500,296089.000,711219.400,681889.800,711081.300,711548.400,308298.800,711990.600,0.000
310424.600,296263.300,711234.600,682042.900,711096.400,711563.600,308380.400,712005.800,0.000
310608.300,296424.600,711245.600,682293.200,711107.600,711574.600,308530.100,712016.400,0.000
310388.800,296218.600,711230.100,681884.900,711092.100,711559.300,308242.100,712000.800,0.000
310161.000,296017.200,711216.600,681328.900,711078.300,711545.400,307864.300,711987.500,0.000
310314.900,296161.400,711234.400,681383.100,711095.700,711563.400,307902.900,712005.300,0.000
310539.000,296360.800,711247.500,681666.200,711109.300,711577.000,308086.300,712018.600,0.000
310371.800,296202.600,711230.700,681349.100,711092.900,711560.300,307865.600,712001.800,0.000
310112.900,295968.400,711218.900,680733.900,711080.400,711548.000,307461.600,711990.000,0.000
310192.700,296043.900,711228.900,680655.600,711090.200,711558.100,307414.200,712000.200,0.000
310441.500,296268.400,711245.100,680947.600,711106.300,711574.100,307612.200,712016.000,0.000
310367.300,296192.900,711238.100,680768.400,711099.900,711567.300,307498.100,712008.800,0.000
310058.700,295908.200,711219.900,680108.900,711081.600,711549.100,307063.800,711990.900,0.000
310085.700,295941.800,711226.000,679918.300,711087.700,711555.100,306950.700,711996.800,0.000
310350.900,296186.700,711248.100,680205.400,711109.900,711577.100,307156.900,712019.300,0.000
310351.200,296182.300,711244.800,680145.800,711106.300,711573.800,307125.000,712015.800,0.000
310055.200,295911.300,711229.300,679510.400,711090.800,711557.900,306715.800,712000.100,0.000
309998.700,295863.400,711228.200,679184.000,711089.800,711556.800,306514.900,711999.200,0.000
310232.700,296077.800,711245.000,679405.400,711106.600,711573.800,306678.700,712016.100,0.000
310308.800,296146.900,711246.100,679456.400,711107.800,711575.300,306731.500,712017.300,0.000
310011.000,295875.300,711226.800,678849.600,711088.300,711555.900,306348.000,711997.900,0.000
309900.700,295777.900,711225.300,678423.800,711086.600,711554.300,306088.500,711996.400,0.000
310125.900,295981.500,711244.500,678597.900,711105.900,711573.800,306228.100,712015.800,0.000
310273.000,296111.700,711253.600,678749.300,711115.300,711582.700,306347.900,712025.300,0.000
310017.400,295875.700,711237.100,678224.400,711098.500,711565.100,306017.700,712008.000,0.000
309822.800,295701.300,711224.400,677679.400,711086.000,711552.900,305676.700,711995.300,0.000
309996.000,295861.600,711239.500,677753.500,711101.000,711568.100,305754.800,712010.400,0.000
310203.000,296047.600,711255.200,677979.900,711115.800,711583.600,305937.200,712026.000,0.000
309992.400,295851.700,711239.300,677547.500,711100.300,711567.900,305673.200,712010.500,0.000
309769.200,295653.900,711229.900,676951.100,711091.400,711558.900,305310.300,712001.300,0.000
309905.500,295784.800,711245.500,676941.300,711107.400,711574.600,305337.800,712017.000,0.000
310126.500,295984.200,711259.000,677188.700,711120.900,711588.000,305535.500,712030.400,0.000
309986.700,295848.900,711247.600,676879.200,711109.200,711576.400,305356.800,712018.900,0.000
309711.300,295598.600,711230.800,676214.000,711092.200,711559.700,304948.300,712002.300,0.000
309778.100,295660.500,711238.400,676075.700,711099.700,711566.800,304887.900,712009.700,0.000
310037.500,295892.700,711258.500,676350.400,711119.700,711586.900,305105.500,712029.500,0.000
309985.000,295836.800,711254.200,676183.800,711115.500,711582.900,305028.800,712025.500,0.000
309676.600,295553.200,711235.300,675500.000,711096.600,711564.100,304603.300,712006.800,0.000
309684.500,295566.300,711241.800,675252.100,711103.300,711570.800,304478.700,712013.300,0.000
309923.400,295786.500,711254.800,675481.600,711116.300,711583.800,304668.100,712026.300,0.000
309950.000,295805.000,711255.700,675434.900,711117.300,711584.200,304675.900,712027.100,0.000
309641.700,295522.100,711237.800,674771.100,711098.900,711566.400,304269.800,712008.500,0.000
309579.700,295469.300,711238.400,674406.200,711099.600,711567.300,304067.900,712009.400,0.000
309823.800,295691.000,711257.500,674613.600,711118.200,711586.300,304246.400,712028.600,0.000
309918.400,295773.000,711260.900,674678.900,711121.900,711589.600,304324.700,712032.400,0.000
309635.200,295511.600,711243.000,674075.700,711103.900,711571.200,303956.800,712014.400,0.000
309492.400,295383.300,711235.500,673592.200,711096.600,711564.100,303674.800,712006.900,0.000
309696.400,295569.100,711252.300,673716.400,711113.800,711581.100,303799.800,712023.900,0.000
309871.900,295724.700,711264.200,673879.800,711125.500,711592.800,303957.500,712035.400,0.000
309625.800,295496.500,711246.600,673357.000,711107.600,711574.700,303650.300,712017.400,0.000
309431.800,295323.600,711239.100,672794.500,711099.900,711567.200,303323.600,712010.000,0.000
309598.400,295476.500,711253.600,672848.500,711114.800,711582.200,303403.400,712025.300,0.000
309804.000,295663.000,711265.000,673065.900,711126.100,711593.200,303589.300,712036.300,0.000
309612.000,295486.300,711253.400,672657.400,711114.300,711581.600,303356.200,712024.900,0.000
309365.000,295263.200,711240.800,672020.100,711101.600,711568.900,302975.100,712011.800,0.000
309477.900,295370.700,711253.300,671964.800,711113.900,711582.100,302982.700,712023.800,0.000
309706.200,295578.400,711268.100,672215.000,711128.800,711596.900,303189.300,712039.100,0.000
309589.800,295471.100,711258.300,671940.700,711119.600,711587.400,303047.600,712029.500,0.000
309308.600,295216.300,711240.400,671266.800,711101.500,711569.000,302644.400,712011.800,0.000
309367.700,295271.100,711250.600,671099.600,711111.600,711579.300,302583.500,712021.800,0.000
309631.500,295511.900,711271.400,671368.500,711132.500,711599.900,302812.200,712042.500,0.000
309599.300,295476.800,711266.300,671226.900,711126.900,711594.400,302761.400,712037.100,0.000
309299.600,295204.500,711249.900,670552.600,711110.500,711577.800,302359.100,712021.000,0.000
309282.900,295195.200,711255.400,670269.700,711115.800,711583.100,302218.800,712026.300,0.000
309519.400,295408.200,711271.400,670491.300,711132.300,711599.900,302410.100,712042.400,0.000
309565.400,295445.200,711272.600,670473.600,711133.700,711601.000,302443.800,712043.600,0.000
309265.500,295171.200,711254.100,669824.600,711114.800,711582.400,302056.100,712025.100,0.000
309172.500,295091.000,711248.800,669418.100,711109.100,711576.600,301830.800,712019.800,0.000
309411.700,295310.000,711269.300,669612.000,711129.800,711597.600,302013.000,712040.400,0.000
309535.000,295420.300,711279.500,669711.100,711140.100,711607.600,302132.200,712050.400,0.000
309254.400,295160.400,711262.300,669117.200,711122.900,711590.400,301783.500,712033.600,0.000
309106.800,295027.300,711254.600,668612.300,711115.300,711582.800,301498.600,712026.100,0.000
309303.900,295209.000,711269.100,668715.600,711129.600,711597.100,301619.000,712040.400,0.000
309485.800,295375.100,711281.600,668893.700,711142.100,711609.700,301791.200,712052.800,0.000
309250.800,295159.400,711264.400,668398.800,711124.800,711592.500,301505.900,712035.600,0.000
309040.100,294973.200,711254.100,667812.300,711113.800,711581.800,301165.100,712024.900,0.000
309193.600,295116.500,711268.800,667829.800,711128.600,711596.300,301229.500,712039.400,0.000
309421.800,295321.500,711283.600,668065.000,711143.900,711611.400,301441.800,712054.100,0.000
309249.800,295161.900,711271.700,667691.200,711132.300,711599.400,301243.200,712042.300,0.000
308983.800,294921.800,711255.900,667037.700,711115.900,711583.600,300859.500,712026.800,0.000
309095.400,295023.900,711268.100,666963.200,711128.200,711595.600,300864.400,712038.800,0.000
309350.200,295253.300,711286.800,667232.100,711147.000,711614.500,301094.900,712057.800,0.000
309259.100,295169.700,711278.100,667000.600,711138.600,711606.200,300988.400,712049.400,0.000
308960.100,294899.400,711261.700,666321.100,711122.100,711589.300,300584.800,712032.600,0.000
308992.400,294932.900,711267.500,666122.800,711127.400,711594.400,300502.700,712038.100,0.000
309251.100,295170.500,711286.100,666387.100,711145.600,711613.300,300732.400,712056.800,0.000
309238.700,295153.800,711283.300,666281.800,711143.100,711610.600,300709.500,712054.200,0.000
308931.200,294871.900,711264.800,665611.600,711124.600,711592.100,300307.100,712035.300,0.000
308906.300,294853.600,711268.200,665309.600,711128.200,711596.100,300159.300,712039.400,0.000
309161.300,295087.600,711288.100,665548.200,711148.300,711615.500,300372.800,712058.700,0.000
309217.200,295135.300,711290.200,665563.600,711150.600,711617.400,300432.000,712060.600,0.000
308907.300,294850.500,711270.400,664922.300,711130.500,711597.700,300047.600,712041.400,0.000
308814.900,294773.000,711269.600,664512.200,711129.200,711596.800,299828.000,712040.500,0.000
309042.100,294980.900,711288.500,664690.100,711148.300,711616.400,300001.400,712059.300,0.000
309180.300,295103.500,711297.800,664817.000,711157.800,711625.500,300141.400,712068.700,0.000
308909.000,294855.700,711277.900,664249.100,711137.800,711605.600,299811.200,712048.800,0.000
308746.400,294712.700,711270.100,663728.200,711129.800,711597.400,299516.200,712040.900,0.000
308935.500,294888.500,711286.200,663823.500,711146.400,711614.100,299633.500,712057.600,0.000
309132.700,295065.800,711300.800,664033.400,711160.700,711628.100,299831.800,712071.700,0.000
308919.900,294868.400,711286.200,663579.300,711145.600,711613.300,299583.700,712056.500,0.000
308707.400,294680.100,711279.100,662989.000,711138.300,711606.200,299248.000,712049.400,0.000
308847.600,294813.900,711292.100,662990.400,711151.600,711618.900,299302.400,712062.400,0.000
309055.300,294997.000,711301.200,663221.400,711160.800,711628.200,299502.600,712071.600,0.000
308895.700,294844.700,711289.100,662880.200,711148.700,711616.200,299322.900,712059.300,0.000
308626.800,294602.800,711272.700,662226.100,711132.500,711599.900,298939.000,712043.000,0.000
308716.500,294685.900,711283.300,662128.200,711143.100,711610.600,298929.400,712053.800,0.000
308981.000,294926.000,711306.100,662419.400,711165.100,711632.600,299179.300,712076.200,0.000
308908.700,294855.100,711297.200,662222.900,711156.800,711624.100,299091.800,712067.600,0.000
308597.500,294569.500,711275.200,661542.300,711134.600,711602.100,298680.100,712045.300,0.000
308622.500,294596.200,711283.300,661335.800,711142.100,711610.100,298599.000,712053.600,0.000
308876.100,294827.000,711302.600,661601.200,711161.800,711629.300,298827.700,712072.800,0.000
308878.700,294826.600,711300.900,661537.400,711160.200,711628.100,298834.600,712071.300,0.000
308575.300,294549.400,711280.800,660882.600,711140.100,711607.800,298446.000,712050.900,0.000
308538.500,294522.300,711286.800,660567.300,711145.800,711613.300,298291.000,712056.700,0.000
308783.900,294746.800,711305.900,660793.900,711164.900,711632.300,298494.900,712076.000,0.000
308867.400,294817.800,711311.300,660849.600,711170.300,711637.400,298583.000,712081.300,0.000
308575.500,294551.300,711291.400,660238.600,711150.400,711617.300,298220.200,712060.900,0.000
308455.500,294446.100,711286.600,659796.400,711145.800,711612.900,297976.300,712056.100,0.000
308668.900,294641.200,711303.600,659960.100,711162.100,711629.400,298138.100,712072.600,0.000
308828.200,294786.300,711313.600,660122.700,711172.400,711639.700,298302.900,712083.200,0.000
308581.300,294556.800,711297.600,659600.800,711156.300,711623.300,298006.900,712067.200,0.000
308396.800,294389.300,711288.800,659066.100,711147.500,711614.900,297703.300,712058.600,0.000
308579.300,294557.900,711305.100,659151.800,711163.800,711631.600,297818.100,712075.000,0.000
308773.100,294730.800,711316.700,659370.300,711175.300,711642.800,298019.800,712086.200,0.000
308553.400,294530.400,711296.200,658930.700,711154.800,711622.200,297769.200,712065.400,0.000
308325.300,294324.800,711286.100,658335.200,711144.500,711612.300,297425.100,712055.400,0.000
308453.100,294444.900,711297.900,658324.900,711156.600,711624.300,297469.800,712067.900,0.000
308699.000,294669.900,711316.900,658605.200,711175.100,711643.000,297713.200,712086.300,0.000
308580.700,294558.400,711310.300,658326.100,711168.400,711636.300,297583.600,712079.700,0.000
308297.700,294299.500,711294.600,657670.400,711152.400,711620.200,297199.600,712063.700,0.000
308363.300,294360.300,711301.000,657544.300,711159.300,711627.000,297168.100,712070.100,0.000
308613.200,294585.100,711316.400,657820.200,711175.300,711642.600,297402.800,712086.000,0.000
308564.700,294538.700,711314.300,657675.700,711173.200,711640.100,297357.900,712083.600,0.000
308261.400,294263.500,711294.500,657014.400,711153.300,711620.200,296962.800,712064.100,0.000
308263.000,294267.800,711295.900,656776.900,711154.300,711621.600,296856.000,712065.400,0.000
308523.500,294503.100,711316.100,657045.800,711174.100,711641.500,297087.500,712085.400,0.000
308561.700,294532.300,711319.100,657027.900,711177.200,711644.200,297129.300,712088.300,0.000
308256.200,294252.900,711299.900,656388.700,711158.400,711625.600,296753.100,712069.100,0.000
308194.200,294200.200,711302.100,656044.800,711160.400,711627.400,296580.700,712071.100,0.000
308450.000,294436.300,711324.400,656284.300,711182.900,711650.000,296796.100,712093.800,0.000
308556.100,294529.900,711329.400,656377.800,711188.100,711655.300,296907.300,712098.800,0.000
308265.400,294261.400,711309.700,655787.300,711168.100,711635.100,296557.300,712078.700,0.000
308125.800,294135.900,711302.100,655327.300,711160.200,711627.300,296300.600,712071.000,0.000
308331.300,294324.900,711318.900,655483.300,711177.300,711644.200,296456.900,712087.800,0.000
308490.800,294467.300,711326.900,655657.400,711185.100,711651.700,296622.500,712095.800,0.000
308247.400,294241.500,711309.800,655164.600,711167.800,711634.500,296341.500,712078.500,0.000
308058.100,294073.100,711303.000,654626.100,711160.700,711628.000,296037.300,712071.700,0.000
308233.100,294236.700,711321.300,654703.100,711179.000,711646.600,296143.300,712090.100,0.000
308447.900,294428.700,711335.700,654952.800,711193.600,711661.200,296362.300,712104.600,0.000
308262.500,294254.300,711321.300,654569.400,711179.000,711646.800,296154.900,712089.800,0.000
308009.200,294026.000,711305.400,653948.900,711162.700,711630.500,295787.600,712073.500,0.000
308123.600,294135.200,711316.300,653918.100,711173.600,711641.400,295817.500,712084.900,0.000
308375.200,294363.600,711332.900,654207.400,711190.900,711658.500,296063.400,712102.100,0.000
308266.000,294254.800,711323.600,653954.800,711181.300,711648.600,295945.600,712092.100,0.000
307976.300,293988.300,711305.900,653301.400,711163.200,711630.900,295562.000,712073.800,0.000
308041.400,294052.800,711315.900,653172.200,711173.600,711641.100,295531.600,712084.400,0.000
308308.400,294296.100,711336.900,653471.400,711194.600,711661.900,295790.100,712105.300,0.000
308277.400,294265.000,711334.600,653353.500,711192.300,711659.800,295765.100,712103.200,0.000
307967.300,293981.100,711313.800,652694.100,711171.400,711639.200,295372.800,712082.200,0.000
307962.900,293981.200,711318.800,652447.400,711176.200,711643.800,295263.100,712086.800,0.000
308223.300,294221.000,711339.200,652716.600,711196.600,711664.200,295494.500,712107.700,0.000
308268.000,294255.500,711341.000,652721.600,711198.000,711665.400,295548.400,712109.000,0.000
307969.900,293980.300,711320.000,652093.600,711177.200,711644.500,295177.800,712088.000,0.000
307900.000,293922.100,711319.400,651735.300,711176.600,711644.000,294995.200,712087.000,0.000
308140.100,294141.900,711339.800,651956.200,711197.100,711664.100,295200.700,712107.500,0.000
308248.500,294237.300,711344.600,652065.500,711201.700,711669.100,295324.600,712112.400,0.000
307975.100,293985.300,711328.500,651504.900,711185.500,711653.200,294997.500,712096.200,0.000
307830.700,293859.900,711321.900,651043.900,711179.700,711647.200,294740.700,712089.900,0.000
308039.300,294055.800,711338.400,651202.000,711196.000,711663.300,294898.100,712106.300,0.000
308215.100,294213.100,711349.300,651412.100,711206.600,711674.100,295091.100,712117.300,0.000
307962.300,293970.100,711332.900,650918.700,711189.800,711657.100,294797.400,712100.500,0.000
307750.800,293774.500,711320.700,650352.000,711177.400,711644.500,294458.100,712088.200,0.000
307938.000,293954.800,711335.900,650447.800,711192.700,711659.800,294579.700,712103.600,0.000
308170.500,294170.400,711351.600,650740.900,711208.600,711675.600,294834.600,712119.400,0.000
307975.600,293979.200,711335.800,650361.900,711192.600,711659.400,294618.000,712103.300,0.000
307718.400,293738.400,711323.400,649736.200,711180.300,711647.100,294236.200,712090.800,0.000
307867.400,293881.500,711342.400,649745.400,711200.000,711666.500,294300.200,712110.200,0.000
308116.400,294112.800,711356.300,650061.400,711213.900,711680.600,294564.500,712123.700,0.000
307999.600,293997.900,711345.100,649820.600,711201.900,711669.200,294446.900,712112.200,0.000
307703.200,293717.800,711329.200,649151.600,711185.900,711653.200,294038.600,712096.500,0.000
307758.000,293771.500,711335.900,649014.100,711192.100,711659.600,293996.400,712102.600,0.000
308042.700,294038.700,711358.100,649355.900,711214.900,711682.300,294290.200,712125.200,0.000
308016.700,294007.300,711354.700,649259.000,711211.400,711678.700,294275.800,712121.800,0.000
307686.200,293693.600,711332.500,648568.400,711189.200,711656.400,293844.300,712099.200,0.000
307679.400,293690.800,711335.400,648312.900,711191.900,711658.900,293721.300,712102.300,0.000
307969.300,293965.500,711359.900,648632.300,711216.600,711683.700,294002.600,712126.700,0.000
308025.200,294015.600,711360.400,648675.400,711216.800,711684.100,294083.600,712126.800,0.000
307696.500,293702.900,711336.400,648024.300,711192.900,711660.000,293678.000,712103.300,0.000
307614.300,293630.500,711334.800,647654.600,711191.500,711658.400,293475.800,712101.500,0.000
307871.400,293872.600,711355.500,647913.700,711212.700,711679.400,293709.700,712122.400,0.000
308007.800,293997.600,711364.300,648076.000,711221.400,711688.500,293876.600,712131.300,0.000
307711.500,293716.200,711345.900,647502.200,711202.500,711669.800,293529.800,712112.200,0.000
307560.900,293577.300,711339.900,647022.500,711196.100,711663.800,293250.800,712106.300,0.000
307774.900,293778.900,711356.200,647190.300,711212.700,711680.100,293416.600,712122.900,0.000
307975.000,293963.500,711367.600,647443.900,711224.600,711691.600,293645.800,712134.100,0.000
307720.600,293718.800,711347.100,646964.100,711203.600,711670.300,293360.200,712113.000,0.000
307499.500,293516.300,711336.000,646390.500,711192.100,711659.100,293019.400,712101.900,0.000
307677.700,293686.800,711352.600,646473.000,711208.400,711675.800,293131.700,712118.400,0.000
307928.700,293918.000,711369.100,646786.300,711224.900,711692.300,293403.800,712135.300,0.000
307761.400,293755.900,711357.800,646454.400,711213.600,711681.300,293224.200,712123.800,0.000
307485.300,293500.000,711342.300,645815.500,711198.000,711665.600,292835.000,712108.000,0.000
307597.000,293607.000,711354.900,645784.200,711210.800,711677.900,292868.900,712120.400,0.000
307860.800,293851.500,711371.800,646114.400,711227.800,711694.900,293149.000,712137.500,0.000
307771.700,293765.800,711362.800,645918.300,711218.900,711686.600,293063.800,712128.900,0.000
307464.900,293475.700,711346.400,645251.900,711202.100,711670.000,292651.000,712112.100,0.000
307514.100,293524.000,711353.600,645104.300,711209.200,711676.800,292601.900,712118.900,0.000
307799.500,293792.800,711373.300,645445.000,711228.900,711696.500,292890.700,712138.800,0.000
307787.700,293776.800,711367.400,645388.400,711223.400,711691.000,292900.000,712132.800,0.000
307471.900,293479.000,711348.800,644733.300,711204.800,711672.300,292500.800,712114.000,0.000
307455.700,293468.200,711353.300,644471.300,711208.800,711676.400,292376.900,712118.300,0.000
307713.300,293709.100,711367.900,644757.800,711223.300,711690.800,292621.800,712132.800,0.000
307775.900,293760.800,711367.200,644824.300,711222.800,711690.200,292712.800,712131.900,0.000
307467.100,293465.600,711349.300,644209.300,711204.800,711672.100,292336.900,712113.800,0.000
307375.100,293382.800,711347.300,643822.000,711202.700,711669.900,292123.900,712111.300,0.000
307628.200,293625.400,711366.800,644067.200,711222.700,711690.100,292348.400,712131.400,0.000
307773.800,293761.400,711374.900,644254.300,711230.700,711697.600,292529.200,712139.400,0.000
307476.100,293479.800,711353.800,643701.400,711209.200,711676.600,292191.500,712117.600,0.000
307319.900,293339.000,711350.300,643214.200,711206.200,711673.100,291915.100,712114.400,0.000
307533.600,293545.500,711368.700,643374.100,711224.300,711691.100,292081.100,712132.900,0.000
307738.200,293733.800,711380.000,643642.400,711235.500,711702.800,292317.600,712144.400,0.000
307495.800,293498.800,711361.000,643192.400,711215.800,711683.500,292052.400,712124.900,0.000
307262.100,293282.800,711348.600,642605.400,711203.600,711671.400,291704.700,712112.700,0.000
307429.800,293445.200,711366.500,642676.500,711221.400,711689.400,291815.500,712130.400,0.000
307687.700,293684.200,711385.300,643009.500,711240.600,711708.200,292102.400,712149.300,0.000
307516.500,293519.500,711368.500,642690.300,711223.400,711690.900,291925.600,712131.800,0.000
307222.900,293249.400,711351.000,642032.100,711205.800,711673.300,291523.600,712114.000,0.000
307326.200,293354.400,711364.300,641979.300,711219.100,711686.800,291550.900,712127.600,0.000
307590.600,293604.400,711381.300,642315.400,711236.200,711704.100,291839.700,712144.700,0.000
307516.600,293532.400,711373.300,642157.100,711227.900,711695.800,291781.600,712136.300,0.000
307190.800,293228.900,711353.900,641479.400,711208.700,711676.400,291362.400,712116.700,0.000
307219.800,293266.300,711362.100,641306.200,711217.100,711684.300,291302.300,712124.800,0.000
307502.700,293535.600,711384.900,641644.500,711239.800,711706.900,291594.900,712147.600,0.000
307510.100,293539.100,711383.000,641625.400,711237.900,711705.300,291634.500,712145.900,0.000
307199.300,293249.500,711367.100,640988.200,711222.400,711689.700,291248.700,712129.900,0.000
307160.000,293220.000,711370.900,640697.300,711226.200,711693.400,291103.600,712133.600,0.000
307394.500,293441.500,711383.300,640962.400,711238.600,711705.400,291331.800,712145.800,0.000
307478.200,293518.700,711387.300,641066.700,711242.000,711708.900,291456.800,712149.400,0.000
307167.600,293223.600,711366.900,640458.700,711221.100,711688.600,291087.600,712128.900,0.000
307064.300,293130.400,711365.300,640053.300,711219.300,711686.600,290866.100,712127.100,0.000
307314.000,293368.300,711386.700,640290.400,711240.900,711708.400,291088.700,712148.400,0.000
307485.000,293527.900,711397.900,640513.800,711252.700,711720.100,291300.500,712159.900,0.000
307188.400,293244.600,711374.300,639975.400,711228.200,711695.800,290973.000,712135.600,0.000
306991.700,293065.400,711365.700,639450.600,711219.800,711687.300,290666.200,712127.000,0.000
307190.800,293261.500,711383.100,639595.600,711237.400,711704.900,290823.000,712144.600,0.000
307406.800,293463.500,711396.600,639887.200,711250.700,711718.300,291076.900,712157.800,0.000
307189.100,293255.700,711379.900,639488.000,711234.300,711701.400,290849.900,712141.300,0.000
306939.900,293029.100,711366.300,638888.500,711220.600,711687.800,290490.300,712127.300,0.000
307094.700,293182.800,711382.400,638935.600,711236.200,711703.600,290583.300,712143.500,0.000
307344.400,293413.700,711397.300,639267.100,711251.100,711718.800,290868.600,712158.900,0.000
307203.700,293275.700,711387.100,639002.900,711241.300,711708.800,290737.600,712148.200,0.000
306901.500,292991.300,711368.700,638343.400,711222.600,711689.700,290335.700,712129.200,0.000
306986.600,293077.700,711377.300,638263.100,711231.600,711698.600,290340.200,712138.300,0.000
307275.600,293350.700,711400.000,638622.400,711254.200,711721.700,290650.800,712160.900,0.000
307217.100,293293.000,711394.600,638499.200,711248.600,711716.500,290620.000,712155.600,0.000
306882.200,292982.000,711372.300,637817.900,711226.400,711693.500,290202.700,712132.900,0.000
306907.300,293012.200,711381.500,637623.400,711235.100,711702.600,290133.300,712141.600,0.000
307179.700,293267.000,711401.200,637950.100,711254.400,711722.100,290414.800,712161.400,0.000
307202.800,293284.500,711399.300,637965.100,711253.100,711720.300,290474.500,712159.400,0.000
306863.800,292966.800,711374.800,637309.500,711228.900,711696.000,290067.800,712134.500,0.000
306808.500,292923.000,711377.600,636988.200,711231.000,711698.600,289907.100,712136.700,0.000
307069.100,293173.200,711396.400,637268.600,711249.900,711717.500,290160.100,712155.300,0.000
307177.000,293272.900,711402.700,637411.300,711256.300,711723.600,290314.400,712160.900,0.000
306866.400,292978.500,711383.000,636828.800,711236.500,711703.800,289959.300,712140.000,0.000
306734.200,292861.000,711378.900,636389.700,711232.300,711699.600,289712.300,712134.500,0.000
306968.400,293086.200,711397.100,636598.600,711250.300,711717.800,289913.600,712152.100,0.000
307139.900,293243.900,711406.000,636835.000,711259.400,711726.700,290130.400,712160.100,0.000
306881.100,292998.700,711387.800,636348.800,711241.400,711708.800,289841.900,712141.100,0.000
306685.400,292819.800,711379.900,635820.000,711233.700,711701.200,289532.800,712132.300,0.000
306872.800,292997.800,711396.300,635944.100,711249.800,711717.300,289672.000,712147.600,0.000
307112.600,293221.800,711411.900,636263.400,711265.200,711732.800,289946.800,712162.600,0.000
306921.800,293037.500,711398.500,635905.800,711251.900,711719.300,289748.200,712148.300,0.000
306654.100,292786.300,711382.500,635288.800,711236.100,711703.600,289372.600,712131.400,0.000
306779.500,292907.400,711393.600,635297.300,711247.000,711714.600,289431.900,712141.400,0.000
307055.800,293165.900,711414.200,635658.200,711267.700,711735.300,289737.400,712161.300,0.000
306931.600,293044.200,711401.300,635431.700,711254.400,711722.400,289623.000,712147.300,0.000
306626.500,292755.400,711381.700,634774.900,711235.100,711702.600,289214.500,712126.500,0.000
306704.100,292832.800,711392.300,634682.300,711245.800,711713.400,289207.100,712136.000,0.000
306987.400,293099.900,711412.900,635041.100,711266.900,711734.400,289508.400,712156.600,0.000
306956.300,293066.400,711410.600,634967.800,711263.800,711731.600,289504.600,712153.100,0.000
306629.400,292760.800,711387.900,634307.800,711240.900,711708.300,289091.700,712128.300,0.000
306626.100,292761.700,711390.200,634082.400,711243.000,711710.300,288986.000,712129.300,0.000
306893.300,293010.100,711408.600,634404.700,711261.100,711728.600,289256.400,712147.300,0.000
306955.300,293064.900,711411.200,634471.800,711264.100,711731.500,289353.300,712149.300,0.000
306639.400,292767.000,711391.600,633851.400,711244.900,711712.100,288970.600,712128.300,0.000
306567.200,292702.200,711392.900,633513.400,711245.800,711713.200,288788.700,712127.900,0.000
306830.800,292949.000,711413.900,633796.800,711266.900,711734.400,289034.300,712148.700,0.000
306947.800,293051.400,711416.200,633962.400,711269.300,711736.700,289192.300,712150.500,0.000
306650.800,292766.200,711394.800,633406.100,711247.800,711715.200,288850.300,712127.300,0.000
306494.600,292622.100,711386.900,632944.800,711240.100,711707.400,288579.600,712118.100,0.000
306725.700,292842.300,711406.700,633153.800,711259.900,711727.100,288774.900,712137.000,0.000
306926.300,293027.000,711418.500,633433.100,711271.800,711739.100,289018.600,712148.300,0.000
306683.500,292795.700,711402.900,632989.400,711256.300,711723.400,288757.800,712131.400,0.000
306459.800,292588.000,711392.400,632436.100,711245.300,711712.300,288425.000,712119.200,0.000
306636.300,292756.700,711405.600,632541.800,711258.600,711725.900,288548.600,712131.400,0.000
306894.100,292997.100,711425.900,632888.100,711278.900,711746.600,288841.200,712151.100,0.000
306720.400,292826.600,711414.500,632569.600,711267.500,711735.300,288663.900,712138.500,0.000
306440.900,292559.000,711396.900,631946.900,711249.800,711717.700,288279.800,712119.400,0.000
306552.200,292664.200,711409.300,631936.300,711261.900,711730.000,288322.000,712130.800,0.000
306823.600,292916.800,711427.400,632300.400,711280.400,711748.300,288621.300,712147.900,0.000
306736.300,292831.800,711418.800,632127.300,711271.500,711739.100,288547.700,712137.600,0.000
306426.800,292543.000,711400.100,631478.800,711252.800,711720.300,288146.900,712117.500,0.000
306473.400,292593.200,711406.400,631351.100,711259.300,711726.400,288109.500,712122.800,0.000
306758.800,292863.600,711425.200,631717.800,711278.300,711745.600,288414.300,712140.800,0.000
306753.500,292854.000,711425.700,631692.300,711278.900,711746.300,288441.900,712139.900,0.000
306420.500,292537.800,711402.600,631038.900,711255.900,711722.800,288031.400,712114.800,0.000
306410.300,292531.700,711405.400,630798.900,711258.300,711725.700,287916.800,712116.400,0.000
306691.700,292798.700,711428.300,631132.200,711281.600,711748.900,288199.800,712138.800,0.000
306756.500,292854.200,711428.200,631222.500,711280.600,711748.300,288304.900,712137.300,0.000
306427.100,292541.500,711403.800,630607.100,711255.600,711723.600,287918.600,712111.300,0.000
306318.800,292445.800,711399.600,630233.800,711251.400,711719.300,287705.900,712105.300,0.000
306578.900,292695.000,711420.600,630514.400,711273.100,711740.800,287950.800,712126.000,0.000
306746.300,292851.500,711433.600,630744.200,711286.400,711754.300,288159.400,712138.300,0.000
306450.700,292569.900,711410.800,630211.300,711263.900,711731.500,287827.100,712113.500,0.000
306279.300,292414.200,711399.600,629734.100,711252.900,711720.400,287544.900,712100.500,0.000
306500.000,292624.300,711420.200,629933.500,711273.500,711741.100,287732.800,712120.400,0.000
306721.800,292829.400,711438.600,630245.400,711291.400,711759.000,288000.500,712137.500,0.000
306486.900,292602.100,711420.800,629831.800,711273.600,711741.400,287754.500,712117.900,0.000
306250.800,292379.400,711405.400,629267.500,711258.300,711725.600,287408.400,712101.100,0.000
306413.600,292537.200,711420.300,629355.100,711273.500,711740.400,287518.900,712115.300,0.000
306662.500,292772.000,711436.300,629707.800,711289.300,711756.300,287812.400,712130.400,0.000
306492.200,292608.400,711422.600,629420.100,711275.800,711742.900,287654.100,712115.000,0.000
306203.300,292337.900,711407.500,628799.700,711260.500,711727.900,287270.100,712097.600,0.000
306303.100,292438.500,711417.100,628767.500,711269.900,711737.600,287296.400,712106.100,0.000
306588.300,292708.500,711437.900,629140.900,711290.500,711758.400,287608.200,712126.300,0.000
306508.900,292631.200,711428.000,628995.200,711280.400,711748.400,287551.400,712114.200,0.000
306186.200,292326.800,711406.800,628340.100,711259.200,711726.900,287141.400,712090.600,0.000
306222.800,292363.800,711415.500,628198.700,711267.900,711735.400,287096.800,712098.000,0.000
306515.800,292637.200,711436.700,628566.400,711289.300,711756.600,287403.700,712118.600,0.000
306526.500,292644.000,711433.700,628569.400,711286.400,711754.100,287451.500,712114.600,0.000
306185.200,292323.600,711409.700,627918.900,711262.300,711729.800,287042.700,712088.400,0.000
306144.600,292290.800,711411.200,627645.000,711263.800,711731.400,286903.800,712088.500,0.000
306421.300,292553.000,711432.800,627968.400,711285.500,711753.200,287178.300,712109.000,0.000
306522.700,292647.800,711440.100,628111.900,711292.700,711760.700,287327.300,712114.800,0.000
306212.500,292355.600,711420.600,627531.900,711272.900,711740.800,286970.300,712092.900,0.000
306085.800,292242.900,711413.500,627130.300,711265.800,711733.400,286740.400,712083.800,0.000
306338.300,292480.800,711432.600,627390.800,711285.100,711753.100,286971.300,712102.200,0.000
306508.100,292633.900,711442.800,627630.100,711295.100,711763.000,287183.300,712111.300,0.000
306223.600,292359.900,711419.700,627122.400,711272.100,711739.800,286867.800,712085.400,0.000
306049.500,292201.500,711414.600,626641.100,711266.700,711734.000,286586.900,712078.100,0.000
306265.000,292407.200,711435.400,626824.600,711287.500,711755.400,286768.800,712097.800,0.000
306475.500,292601.200,711447.600,627135.600,711299.900,711767.600,287027.500,712108.800,0.000
306260.800,292395.500,711433.500,626758.900,711285.600,711753.100,286807.800,712092.800,0.000
306000.900,292154.800,711416.200,626172.600,711268.100,711735.400,286445.200,712072.700,0.000
306150.300,292302.400,711429.000,626238.100,711280.800,711748.700,286539.500,712084.100,0.000
306401.500,292538.000,711443.400,626596.400,711295.700,711763.300,286831.500,712097.300,0.000
306249.700,292390.300,711430.300,626345.400,711282.900,711750.500,286696.400,712082.300,0.000
305965.300,292124.900,711415.900,625724.700,711268.100,711735.800,286314.300,712065.000,0.000
306058.500,292217.300,711426.000,625679.600,711278.100,711746.100,286334.300,712073.100,0.000
306334.000,292477.900,711443.200,626051.600,711295.700,711763.400,286638.200,712089.300,0.000
306281.500,292424.900,711437.200,625952.900,711289.500,711757.200,286612.500,712081.400,0.000
305962.400,292122.400,711418.000,625309.100,711270.000,711737.800,286210.600,712058.500,0.000
305973.800,292137.300,711425.200,625134.500,711277.100,711744.600,286136.700,712062.800,0.000
306251.500,292401.000,711445.400,625488.600,711297.600,711765.300,286428.800,712081.800,0.000
306288.500,292432.800,711445.400,625531.800,711297.800,711765.500,286507.800,712079.900,0.000
305964.800,292125.100,711423.300,624906.800,711275.400,711743.100,286118.700,712053.800,0.000
305909.600,292076.300,711423.500,624606.000,711275.400,711742.900,285959.100,712050.400,0.000
306184.000,292336.500,711446.600,624926.000,711298.900,711766.800,286230.000,712072.000,0.000
306310.000,292453.200,711456.500,625106.300,711308.600,711776.600,286405.300,712079.300,0.000
305989.500,292147.500,711430.600,624530.500,711282.500,711750.300,286045.200,712047.900,0.000
305844.500,292013.100,711419.900,624104.300,711272.100,711739.400,285793.800,712030.600,0.000
306084.400,292240.700,711440.500,624348.800,711292.700,711760.500,286011.900,712046.600,0.000
306261.700,292402.200,711450.000,624608.200,711302.400,711770.400,286236.100,712049.100,0.000
305998.800,292151.300,711431.300,624145.300,711283.400,711751.600,285957.200,711925.600,0.000
305807.600,291977.900,711421.800,623641.700,711274.000,711741.900,285659.000,711462.700,0.000
306009.800,292172.700,711437.900,623797.300,711290.900,711758.600,285815.100,711057.400,0.000
306247.000,292395.200,711455.600,624138.300,711308.600,711776.100,286097.900,710739.100,0.000
306038.500,292194.500,711439.000,623784.800,711292.000,711759.400,285891.600,710008.900,0.000
305767.100,291941.000,711423.600,623184.300,711276.400,711744.100,285517.300,709068.100,0.000
305907.400,292075.000,711435.500,623228.700,711288.300,711755.900,285595.300,708489.600,0.000
306185.000,292332.200,711455.700,623610.700,711308.400,711775.900,285907.400,708132.100,0.000
306061.800,292210.300,711443.400,623401.600,711296.000,711763.800,285802.000,707411.600,0.000
305754.800,291923.000,711424.400,622765.300,711277.000,711744.900,285405.500,706425.900,0.000
305836.500,292006.600,711435.900,622700.100,711288.900,711756.400,285412.000,705805.300,0.000
306114.800,292268.500,711454.600,623074.900,711307.600,711775.100,285718.000,705463.300,0.000
306081.800,292231.600,711450.600,623013.600,711303.300,711771.100,285718.500,704879.200,0.000
305745.900,291914.300,711427.700,622361.800,711280.400,711748.000,285306.300,703949.000,0.000
305752.900,291928.200,711434.100,622170.100,711287.100,711754.600,285225.500,703295.400,0.000
306042.300,292200.200,711458.200,622530.400,711311.300,711778.900,285523.400,702966.400,0.000
306094.100,292241.700,711458.100,622603.300,711310.600,711778.600,285616.800,702484.000,0.000
305779.300,291944.100,711438.600,622001.500,711291.000,711758.800,285246.200,701628.600,0.000
305697.500,291872.400,711436.200,621670.600,711289.100,711756.800,285064.700,700914.100,0.000
305940.000,292102.300,711451.900,621953.300,711304.100,711771.900,285300.900,700540.200,0.000
306071.800,292222.900,711461.800,622153.900,711314.400,711781.600,285486.200,700140.200,0.000
305777.100,291938.300,711438.700,621613.500,711291.400,711759.100,285154.200,699326.300,0.000
305625.200,291796.600,711430.900,621176.400,711283.800,711751.600,284896.300,698560.100,0.000
305853.500,292014.700,711450.800,621407.800,711303.900,711771.300,285103.000,698169.200,0.000
306049.400,292197.800,711464.400,621703.400,711317.400,711785.300,285354.500,697824.400,0.000
305800.100,291961.000,711445.900,621266.800,711298.400,711766.700,285092.600,697073.900,0.000
305599.000,291778.500,711437.100,620749.800,711289.500,711757.600,284786.800,696280.800,0.000
305775.400,291949.100,711452.700,620880.600,711305.100,711773.400,284923.800,695835.600,0.000
306003.900,292161.500,711465.600,621224.800,711318.000,711786.300,285203.300,695512.100,0.000
305820.500,291984.300,711450.700,620916.600,711303.700,711771.800,285027.100,694835.400,0.000
305544.900,291727.000,711434.300,620317.400,711287.400,711755.400,284655.200,693993.200,0.000
305693.300,291872.000,711452.600,620358.500,711304.900,711773.300,284737.800,693514.700,0.000
305960.300,292121.300,711469.300,620733.800,711321.800,711789.800,285039.200,693214.300,0.000
305847.600,292009.500,711455.300,620553.400,711308.400,711775.800,284949.100,692607.800,0.000
305536.700,291716.600,711438.300,619922.600,711291.200,711759.000,284555.800,691754.100,0.000
305593.100,291776.700,711445.900,619827.700,711298.700,711766.600,284535.500,691190.200,0.000
305879.900,292047.100,711465.000,620209.200,711317.800,711785.800,284841.300,690896.300,0.000
305872.100,292034.000,711463.800,620195.100,711316.100,711784.300,284870.100,690391.500,0.000
305553.600,291732.400,711444.700,619570.800,711297.000,711765.100,284475.400,689546.100,0.000
305543.900,291727.100,711447.100,619355.300,711299.400,711767.600,284368.300,688917.600,0.000
305826.300,291991.700,711467.800,619710.600,711320.300,711788.500,284655.800,688609.800,0.000
305898.900,292054.300,711470.600,619827.600,711323.200,711791.400,284773.100,688177.300,0.000
305577.100,291747.000,711446.400,619238.900,711299.100,711767.400,284398.000,687335.300,0.000
305478.600,291661.200,711441.600,618890.300,711293.700,711762.000,284194.000,686439.400,0.000
305736.400,291905.300,711460.600,619185.100,711312.600,711780.400,284428.000,686122.600,0.000
305883.600,292039.900,711468.400,619413.700,711320.900,711788.500,284613.200,686025.500,0.000
305573.900,291743.800,711444.300,618878.600,711296.800,711764.100,284259.000,685503.900,0.000
305406.700,291590.000,711436.700,618418.600,711288.900,711756.800,283966.900,685019.700,0.000
305627.100,291800.100,711454.100,618629.200,711306.700,711774.400,284142.000,684904.900,0.000
305836.800,291996.600,711466.900,618938.900,711319.100,711786.800,284384.800,684853.900,0.000
305598.200,291764.600,711448.000,618526.000,711299.700,711767.100,284120.500,684402.800,0.000
305367.200,291548.800,711435.300,617981.800,711286.900,711754.300,283774.100,683871.800,0.000
305540.800,291716.800,711450.600,618100.300,711302.400,711769.500,283889.200,683704.700,0.000
305796.200,291956.600,711466.700,618474.500,711319.300,711786.100,284179.100,683687.300,0.000
305633.900,291797.600,711451.900,618201.400,711304.300,711771.600,284015.000,683311.800,0.000
305344.300,291525.000,711432.300,617585.200,711284.500,711751.600,283618.400,682737.900,0.000
305451.700,291627.700,711444.100,617581.500,711296.300,711763.500,283651.100,682498.600,0.000
305725.800,291883.900,711463.100,617971.300,711315.100,711782.600,283952.900,682479.400,0.000
305652.200,291811.100,711456.800,617846.300,711308.100,711776.100,283896.400,682187.000,0.000
305336.800,291515.800,711436.900,617209.800,711288.400,711756.000,283485.000,681604.100,0.000
305377.300,291556.800,711442.900,617086.900,711294.300,711761.600,283435.300,681298.600,0.000
305658.800,291821.500,711460.400,617466.400,711312.100,711779.600,283730.700,681272.400,0.000
305665.100,291822.000,711458.200,617482.300,711310.300,711777.600,283773.700,681054.400,0.000
305324.500,291501.300,711432.300,616845.600,711284.300,711751.400,283359.000,680466.800,0.000
305298.800,291481.000,711438.700,616608.100,711290.500,711758.200,283232.600,680099.900,0.000
305579.000,291745.700,711460.400,616954.100,711312.100,711779.600,283506.200,680054.900,0.000
305664.600,291820.100,711463.600,617092.800,711315.100,711782.500,283634.200,679902.400,0.000
305352.200,291519.600,711443.600,616520.400,711295.100,711762.400,283268.100,679359.900,0.000
305251.900,291428.000,711441.900,616154.900,711293.300,711760.500,283053.300,678923.600,0.000
305493.700,291659.200,711457.900,616423.900,711309.500,711776.700,283274.300,678830.600,0.000
305656.000,291811.400,711466.100,616678.900,711317.800,711785.100,283487.500,678742.600,0.000
305374.800,291545.300,711445.000,616188.300,711296.800,711763.900,283178.700,678241.800,0.000
305187.900,291372.500,711433.500,615705.500,711285.000,711752.400,282880.900,677736.100,0.000
305400.600,291574.300,711452.800,615899.300,711304.000,711771.800,283053.600,677605.300,0.000
305622.900,291782.200,711467.100,616233.600,711318.100,711785.600,283321.300,677559.600,0.000
305406.600,291576.700,711452.800,615861.700,711304.000,711771.600,283100.300,677130.500,0.000
305155.200,291345.100,711438.200,615293.300,711289.500,711757.000,282743.400,676578.900,0.000
305312.400,291498.200,711451.700,615381.000,711303.400,711770.800,282841.000,676385.800,0.000
305576.500,291748.300,711469.900,615765.600,711321.100,711789.000,283145.000,676365.100,0.000
305425.000,291599.300,711456.800,615524.300,711308.300,711775.600,283009.600,675998.900,0.000
305125.800,291316.600,711438.100,614901.800,711289.100,711756.600,282613.400,675418.100,0.000
305235.000,291425.900,711451.500,614888.800,711302.600,711770.400,282644.900,675173.400,0.000
305514.900,291690.200,711469.500,615286.000,711321.300,711788.600,282955.400,675155.100,0.000
305438.500,291610.400,711455.700,615171.800,711307.300,711774.700,282905.000,674855.400,0.000
305119.800,291306.900,711434.500,614535.300,711286.300,711753.300,282498.700,674270.400,0.000
305154.900,291342.000,711445.900,614395.300,711297.200,711764.300,282445.100,673958.600,0.000
305434.300,291605.300,711468.100,614773.900,711319.100,711786.500,282743.800,673929.800,0.000
305461.800,291631.100,711468.100,614829.600,711318.800,711786.700,282814.200,673727.600,0.000
305129.400,291317.800,711445.400,614212.900,711296.200,711764.000,282415.900,673148.400,0.000
305075.700,291273.300,711444.800,613933.400,711295.800,711763.500,282260.400,672750.700,0.000
305351.300,291536.500,711465.800,614270.800,711316.500,711784.000,282532.500,672699.400,0.000
305468.200,291643.000,711471.100,614452.500,711322.400,711789.800,282695.300,672571.300,0.000
305149.500,291340.600,711448.100,613890.000,711299.100,711767.000,282336.000,672024.300,0.000
305024.200,291226.500,711442.600,613494.500,711293.100,711761.200,282099.600,671563.900,0.000
305269.500,291460.400,711462.900,613764.400,711313.200,711781.300,282323.500,671472.800,0.000
305451.900,291631.400,711472.700,614049.600,711323.600,711791.400,282557.100,671397.600,0.000
305174.500,291367.000,711450.100,613583.100,711300.900,711768.600,282262.300,670903.200,0.000
304976.700,291182.500,711442.600,613090.800,711292.900,711760.600,281961.700,670394.400,0.000
305174.600,291371.300,711458.000,613264.500,711308.600,711776.400,282122.100,670247.100,0.000
305406.300,291590.900,711472.300,613614.900,711322.800,711790.700,282400.300,670205.800,0.000
305201.500,291395.600,711455.900,613274.300,711306.300,711774.300,282196.000,669786.400,0.000
304951.000,291163.100,711445.600,612710.900,711295.500,711763.700,281845.300,669244.400,0.000
305092.200,291301.000,711457.900,612778.600,711308.400,711775.900,281930.400,669038.300,0.000
305370.800,291562.700,711477.300,613174.600,711328.000,711795.600,282245.700,669023.300,0.000
305256.400,291447.400,711470.200,612985.700,711320.900,711788.600,282152.300,668693.300,0.000
304938.000,291148.100,711446.900,612349.900,711297.800,711765.300,281742.700,668098.300,0.000
305015.700,291226.100,711455.100,612301.300,711305.900,711773.600,281746.500,667827.100,0.000
305312.700,291505.800,711475.600,612711.100,711326.000,711793.800,282068.400,667818.200,0.000
305277.400,291470.000,711471.800,612664.800,711322.300,711790.000,282070.900,667562.500,0.000
304943.900,291154.400,711449.400,612029.100,711299.700,711767.600,281663.700,666974.400,0.000
304948.000,291163.700,711454.300,611850.900,711304.200,711772.000,281579.800,666634.400,0.000
305235.300,291437.200,711476.800,612229.400,711326.700,711794.800,281878.600,666605.100,0.000
305290.800,291486.200,711477.900,612323.900,711328.000,711796.100,281980.900,666429.600,0.000
304957.700,291168.800,711453.400,611714.800,711303.900,711771.300,281591.100,665858.400,0.000
304894.900,291113.600,711455.400,611417.300,711305.700,711773.300,281428.500,665458.900,0.000
305159.300,291363.000,711474.200,611738.600,711324.600,711791.900,281687.700,665393.900,0.000
305281.600,291472.400,711478.900,611940.600,711329.200,711796.800,281860.600,665270.500,0.000
304975.200,291181.100,711458.600,611403.200,711308.600,711776.300,281520.300,664739.800,0.000
304836.600,291056.200,711456.100,610996.500,711305.800,711773.400,281282.400,664279.200,0.000
305059.800,291268.000,711474.500,611242.600,711324.400,711791.400,281490.100,664172.000,0.000
305247.600,291444.800,711484.300,611544.000,711333.800,711801.700,281734.400,664104.400,0.000
304993.800,291204.300,711466.000,611114.700,711315.800,711783.200,281467.700,663637.800,0.000
304783.500,291010.600,711455.000,610607.100,711304.600,711772.200,281153.000,663119.900,0.000
304971.300,291192.200,711469.600,610765.600,711319.800,711787.400,281299.700,662966.400,0.000
305219.800,291424.500,711489.900,611143.500,711340.300,711807.700,281598.900,662945.300,0.000
305024.300,291234.900,711473.900,610834.400,711324.400,711792.100,281414.000,662541.800,0.000
304745.800,290976.700,711456.100,610243.400,711306.100,711773.900,281037.700,661978.100,0.000
304874.600,291104.000,711467.600,610288.500,711317.800,711785.200,281107.100,661764.000,0.000
305157.800,291370.600,711489.300,610699.300,711339.500,711806.600,281428.900,661759.900,0.000
305057.600,291268.100,711482.500,610544.900,711332.500,711799.600,281357.000,661449.300,0.000
304741.500,290967.300,711462.300,609918.600,711312.600,711779.700,280956.900,660867.900,0.000
304800.800,291026.300,711468.500,609837.300,711319.100,711786.400,280939.400,660582.100,0.000
305088.900,291298.000,711487.800,610236.400,711338.300,711805.300,281253.100,660569.100,0.000
305067.700,291274.200,711483.800,610219.300,711334.100,711801.300,281272.400,660331.300,0.000
304738.800,290963.500,711463.100,609596.600,711312.600,711780.100,280875.100,659759.500,0.000
304727.300,290958.600,711464.900,609395.400,711314.800,711782.600,280774.900,659413.300,0.000
305013.400,291230.900,711486.000,609771.000,711335.600,711803.300,281073.900,659389.400,0.000
305075.900,291286.700,711488.900,609888.400,711338.800,711806.400,281189.600,659226.800,0.000
304755.800,290984.800,711468.700,609307.100,711318.100,711785.600,280821.400,658677.400,0.000
304672.000,290909.700,711468.900,608988.100,711318.000,711785.800,280641.900,658265.900,0.000
304926.700,291150.300,711486.900,609293.300,711336.100,711803.600,280889.200,658196.100,0.000
305070.000,291282.600,711493.000,609527.200,711342.600,711809.600,281084.600,658097.200,0.000
304771.300,291002.600,711473.600,609017.400,711323.000,711790.600,280762.000,657587.400,0.000
304603.200,290850.600,711465.200,608575.900,711314.300,711782.200,280496.900,657105.800,0.000
304830.400,291063.700,711484.500,608811.600,711334.100,711801.500,280703.900,657000.300,0.000
305042.800,291259.200,711499.000,609144.900,711348.600,711816.300,280975.800,656958.100,0.000
304802.200,291028.600,711480.600,608744.400,711329.800,711797.700,280729.900,656510.900,0.000
304577.300,290816.100,711467.900,608216.400,711317.400,711784.900,280400.100,655984.900,0.000
304761.700,290992.400,711486.800,608364.200,711336.300,711803.900,280541.800,655830.700,0.000
305013.100,291228.400,711502.200,608748.100,711351.600,711819.100,280842.100,655811.100,0.000
304834.300,291054.900,711486.800,608473.000,711336.500,711803.900,280680.600,655426.800,0.000
304551.400,290790.300,711471.200,607878.600,711320.800,711788.500,280303.300,654861.800,0.000
304669.300,290902.900,711481.600,607899.200,711330.700,711798.600,280354.400,654632.600,0.000
304950.200,291166.400,711500.700,608311.100,711349.900,711818.100,280675.300,654628.400,0.000
304867.300,291083.300,711491.400,608193.400,711341.100,711809.100,280624.100,654338.300,0.000
304542.200,290775.800,711470.800,607563.300,711320.600,711788.200,280217.600,653756.200,0.000
304594.000,290832.300,711478.100,607464.800,711327.600,711795.200,280185.700,653466.100,0.000
304888.000,291112.800,711501.600,607876.100,711351.200,711818.700,280506.400,653462.300,0.000
304893.700,291115.300,711499.700,607904.400,711349.400,711816.800,280558.600,653251.300,0.000
304551.800,290793.300,711473.900,607277.700,711323.200,711791.000,280153.600,652670.300,0.000
304521.900,290767.700,711476.000,607047.400,711325.400,711793.700,280037.700,652309.400,0.000
304803.400,291034.100,711497.800,607416.400,711347.100,711814.900,280332.700,652282.600,0.000
304890.700,291110.700,711502.400,607572.200,711351.400,711819.100,280472.300,652142.200,0.000
304566.600,290803.600,711479.300,606997.800,711328.600,711796.100,280105.200,651597.300,0.000
304463.400,290715.100,711477.200,606650.400,711326.100,711793.600,279904.800,651173.700,0.000
304716.800,290953.200,711495.900,606948.600,711344.800,711812.600,280150.200,651105.300,0.000
304883.100,291104.300,711505.500,607216.600,711354.900,711822.400,280371.900,651030.900,0.000
304603.900,290837.800,711486.600,606737.800,711335.400,711803.100,280070.800,650540.600,0.000
304422.300,290670.600,711475.200,606273.500,711323.900,711791.400,279784.800,650044.600,0.000
304641.900,290879.500,711493.500,606490.800,711342.300,711809.900,279973.300,649931.400,0.000
304874.800,291094.200,711508.200,606844.800,711357.000,711824.600,280257.700,649906.800,0.000
304650.700,290877.700,711493.600,606479.400,711341.700,711809.800,280039.500,649483.400,0.000
304401.800,290648.600,711475.600,605922.400,711324.600,711791.900,279690.400,648941.600,0.000
304557.800,290800.900,711488.000,606026.600,711337.000,711804.300,279801.000,648763.500,0.000
304817.300,291047.300,711505.100,606423.300,711353.800,711821.200,280114.500,648758.800,0.000
304669.400,290904.300,711493.000,606197.600,711341.700,711809.100,279989.200,648412.300,0.000
304378.100,290632.900,711477.300,605601.400,711325.600,711793.200,279609.900,647854.400,0.000
304482.400,290735.800,711491.000,605604.800,711339.200,711807.000,279651.300,647622.700,0.000
304772.800,291008.800,711514.100,606027.000,711363.000,711830.500,279980.900,647631.900,0.000
304699.300,290936.700,711502.900,605932.700,711352.000,711819.300,279944.800,647354.600,0.000
304371.800,290627.900,711480.800,605306.600,711329.200,711796.500,279542.900,646779.700,0.000
304402.900,290661.800,711488.600,605178.700,711336.600,711803.900,279493.600,646476.600,0.000
304695.300,290938.300,711511.300,605584.100,711359.300,711827.200,279812.800,646472.000,0.000
304720.500,290956.600,711510.900,605650.100,711359.400,711826.900,279888.900,646284.100,0.000
304379.900,290633.800,711484.700,605031.900,711332.800,711800.100,279487.300,645712.400,0.000
304332.900,290588.600,711485.400,604769.700,711333.900,711801.200,279345.100,645335.900,0.000
304605.400,290843.500,711502.900,605116.400,711351.400,711819.100,279616.000,645293.400,0.000
304710.000,290937.000,711506.100,605299.800,711354.400,711822.000,279773.300,645169.800,0.000
304390.400,290633.100,711484.900,604749.100,711333.100,711800.400,279418.700,644637.800,0.000
304277.800,290531.100,711481.400,604385.000,711329.800,711797.100,279204.500,644206.800,0.000
304531.400,290773.600,711500.900,604675.600,711349.100,711816.400,279442.300,644137.900,0.000
304704.700,290935.200,711512.600,604966.400,711360.700,711828.400,279676.200,644074.900,0.000
304434.900,290678.700,711494.900,604517.100,711343.300,711811.000,279395.500,643605.400,0.000
304242.900,290504.000,711485.400,604044.600,711333.800,711801.000,279107.100,643118.100,0.000
304448.500,290700.800,711501.500,604237.300,711349.600,711816.900,279278.000,642994.800,0.000
304686.400,290921.500,711517.600,604604.700,711365.600,711833.000,279569.600,642976.100,0.000
304468.600,290710.800,711499.100,604262.100,711346.600,711814.900,279363.500,642564.700,0.000
304206.300,290465.300,711484.100,603698.600,711331.500,711799.800,279009.600,642026.000,0.000
304361.600,290617.500,711502.000,603794.700,711349.700,711817.600,279114.800,641854.100,0.000
304632.300,290873.600,711519.200,604200.300,711366.900,711834.800,279428.800,641853.900,0.000
304499.200,290743.700,711505.500,604003.000,711353.300,711821.100,279320.700,641523.200,0.000
304193.500,290455.800,711488.300,603397.200,711335.800,711803.900,278931.000,640961.700,0.000
304278.600,290539.800,711499.300,603371.000,711346.800,711814.700,278947.700,640716.100,0.000
304565.800,290810.100,711518.800,603785.400,711366.100,711834.300,279265.400,640716.800,0.000
304525.200,290767.500,711515.200,603743.600,711362.100,711830.300,279263.800,640471.300,0.000
304198.600,290459.000,711492.400,603125.900,711339.500,711807.400,278865.100,639904.000,0.000
304215.200,290479.700,711497.600,602972.600,711345.200,711813.100,278793.700,639588.100,0.000
304502.500,290749.500,711518.300,603368.600,711366.100,711833.900,279100.500,639579.800,0.000
304547.800,290786.900,711519.200,603467.600,711366.800,711834.300,279199.800,639413.600,0.000
304220.000,290473.000,711497.000,602878.700,711344.400,711812.400,278820.500,638864.800,0.000
304152.200,290413.400,711495.900,602600.000,711343.300,711811.200,278661.600,638478.600,0.000
304425.400,290675.300,711515.700,602951.800,711363.100,711830.600,278940.600,638448.300,0.000
304553.600,290792.600,711522.100,603174.400,711369.400,711836.600,279129.000,638353.600,0.000
304249.200,290504.200,711502.200,602651.000,711349.600,711817.100,278796.300,637844.500,0.000
304106.100,290374.800,711496.800,602255.300,711344.100,711811.600,278559.000,637397.800,0.000
304343.900,290600.700,711515.000,602526.500,711362.600,711829.600,278782.300,637319.600,0.000
304541.000,290785.800,711526.400,602844.100,711374.200,711841.500,279035.000,637276.900,0.000
304283.300,290539.400,711508.000,602420.300,711355.500,711822.800,278767.700,636825.400,0.000
304077.800,290346.200,711498.700,601925.600,711345.800,711812.700,278458.400,636327.400,0.000
304266.500,290524.200,711514.600,602094.900,711361.900,711829.300,278608.200,636190.300,0.000
304509.400,290749.800,711529.600,602473.100,711376.800,711844.400,278903.600,636180.000,0.000
304317.800,290567.000,711514.100,602170.300,711360.800,711828.600,278722.000,635795.800,0.000
304058.800,290328.300,711498.700,601607.900,711345.400,711813.100,278368.000,635267.400,0.000
304192.000,290455.700,711511.600,601672.100,711358.300,711825.900,278449.500,635076.900,0.000
304468.700,290714.900,711530.600,602088.700,711377.500,711845.300,278772.300,635085.900,0.000
304358.000,290607.600,711520.100,601935.800,711366.800,711834.500,278694.000,634784.200,0.000
304047.600,290313.800,711502.400,601327.400,711348.800,711816.600,278304.500,634228.800,0.000
304106.300,290374.800,711508.600,601265.300,711355.100,711822.700,278297.900,633963.900,0.000
304397.300,290652.000,711527.300,601683.300,711374.600,711841.900,278623.100,633975.000,0.000
304388.400,290639.400,711524.200,601688.500,711371.500,711839.000,278662.700,633770.900,0.000
304055.800,290324.100,711504.400,601077.900,711351.400,711818.900,278272.600,633216.600,0.000
304048.300,290321.700,711510.300,600894.700,711357.400,711824.800,278185.300,632893.200,0.000
304339.200,290600.800,711532.300,601284.600,711378.800,711846.500,278494.600,632893.600,0.000
304403.900,290659.300,711532.300,601414.500,711378.900,711846.100,278616.900,632751.800,0.000
304076.600,290350.300,711509.900,600835.400,711356.300,711824.100,278244.800,632213.500,0.000
303992.700,290276.700,711506.400,600523.100,711353.100,711821.100,278064.600,631814.900,0.000
304269.800,290537.700,711529.200,600866.100,711375.600,711843.400,278338.300,631785.100,0.000
304408.900,290663.000,711536.000,601110.300,711382.700,711850.300,278538.600,631703.100,0.000
304108.600,290378.100,711512.500,600600.600,711358.700,711826.500,278210.800,631203.100,0.000
303954.200,290239.800,711506.900,600184.500,711353.600,711820.900,277958.100,630755.000,0.000
304186.500,290461.200,711527.400,600439.300,711374.500,711841.700,278169.600,630676.900,0.000
304391.500,290652.800,711540.300,600773.900,711387.100,711854.400,278436.700,630645.400,0.000
304144.300,290416.800,711521.700,600375.800,711368.300,711836.100,278188.800,630209.800,0.000
303913.000,290199.800,711506.500,599856.300,711353.100,711820.600,277858.800,629697.500,0.000
304103.500,290382.300,711524.900,600019.600,711371.700,711838.400,278008.600,629567.300,0.000
304357.700,290619.400,711539.900,600414.900,711386.900,711853.800,278315.900,629568.600,0.000
304188.800,290455.200,711527.300,600157.300,711373.900,711841.700,278166.200,629214.000,0.000
303913.700,290198.400,711511.100,599584.500,711357.600,711825.300,277803.500,628679.900,0.000
304025.100,290309.600,711522.800,599620.400,711369.600,711837.200,277862.100,628472.600,0.000
304310.600,290575.700,711541.900,600043.500,711388.800,711856.100,278186.500,628489.600,0.000
304223.200,290488.000,711532.800,599927.900,711379.500,711846.900,278133.100,628211.100,0.000
303908.300,290191.300,711511.600,599318.800,711357.800,711825.800,277740.700,627656.900,0.000
303953.200,290237.700,711517.800,599227.600,711364.300,711831.800,277711.300,627381.900,0.000
304245.000,290513.500,711538.600,599641.400,711385.300,711852.800,278031.300,627393.000,0.000
304247.800,290512.200,711533.800,599669.000,711380.300,711847.800,278077.800,627195.900,0.000
303913.800,290196.800,711512.400,599064.100,711358.900,711826.300,277686.900,626647.200,0.000
303889.200,290175.200,711515.300,598855.200,711361.800,711829.300,277578.800,626313.700,0.000
304176.500,290445.100,711536.200,599236.800,711382.800,711850.600,277878.300,626311.100,0.000
304262.300,290520.800,711540.400,599399.200,711387.100,711854.600,278022.400,626190.900,0.000
303936.800,290208.300,711515.000,598831.500,711361.600,711828.700,277654.800,625662.300,0.000
303835.900,290114.300,711512.400,598498.300,711358.700,711826.100,277460.200,625260.500,0.000
304090.300,290354.400,711531.000,598811.100,711377.800,711844.900,277710.700,625213.900,0.000
304255.200,290509.500,711540.900,599084.100,711388.100,711855.100,277934.400,625157.400,0.000
303973.700,290243.900,711520.300,598608.300,711367.000,711834.600,277636.200,624688.200,0.000
303803.600,290086.100,711515.300,598173.500,711361.800,711829.400,277378.800,624237.400,0.000
304018.500,290291.300,711534.400,598401.100,711380.800,711848.400,277574.700,624149.100,0.000
304231.700,290490.400,711546.800,598745.000,711392.900,711860.800,277841.700,624128.500,0.000
303995.300,290264.900,711527.900,598373.800,711374.300,711841.500,277610.800,623713.900,0.000
303766.300,290054.000,711516.500,597852.800,711362.800,711830.100,277284.800,623216.400,0.000
303933.400,290215.000,711530.900,597983.100,711376.700,711844.600,277410.300,623073.600,0.000
304189.900,290453.300,711546.200,598380.800,711391.900,711859.600,277720.500,623082.600,0.000
304036.600,290304.700,711533.200,598151.800,711379.000,711846.500,277590.800,622750.000,0.000
303754.400,290040.400,711519.400,597568.900,711365.500,711832.800,277225.700,622221.900,0.000
303851.200,290137.100,711528.500,597573.600,711374.300,711841.700,277266.100,622007.400,0.000
304131.300,290403.100,711546.700,597992.900,711392.900,711860.400,277591.600,622028.800,0.000
304058.100,290329.200,711539.000,597906.600,711384.900,711852.500,277564.000,621775.500,0.000
303731.800,290022.900,711516.300,597288.400,711362.400,711829.600,277165.000,621221.100,0.000
303769.300,290061.700,711523.600,597177.800,711369.900,711836.800,277125.200,620946.300,0.000
304061.100,290337.500,711545.900,597591.000,711391.900,711859.600,277445.600,620964.300,0.000
304090.200,290361.800,711547.100,597662.900,711393.400,711860.700,277525.300,620801.400,0.000
303760.100,290048.600,711524.800,597068.800,711370.900,711838.200,277139.900,620264.600,0.000
303712.800,290008.400,711526.100,596830.400,711371.800,711839.300,277008.000,619916.100,0.000
303990.700,290271.400,711547.100,597196.600,711392.700,711860.000,277294.100,619903.400,0.000
304092.200,290361.500,711550.300,597382.300,711396.300,711863.500,277450.300,619798.800,0.000
303771.200,290058.000,711525.700,596833.600,711371.600,711838.600,277095.000,619286.500,0.000
303659.300,289960.200,711521.900,596484.600,711367.600,711834.900,276891.300,618884.600,0.000
303915.700,290205.500,711547.000,596797.500,711392.700,711860.200,277144.700,618849.500,0.000
304086.400,290364.400,711555.200,597089.300,711400.600,711867.900,277377.600,618804.400,0.000
303806.200,290098.300,711533.300,596634.000,711378.600,711845.800,277090.500,618348.900,0.000
303619.400,289926.600,711525.000,596172.200,711370.400,711837.800,276807.900,617885.700,0.000
303818.200,290116.500,711539.600,596372.600,711384.900,711852.500,276982.000,617782.300,0.000
304048.900,290327.600,711554.300,596744.600,711399.900,711867.300,277274.800,617784.600,0.000
303846.800,290133.800,711541.000,596424.700,711386.600,711853.600,277084.600,617411.200,0.000
303598.200,289903.100,711526.500,595883.600,711372.400,711839.400,276743.900,616904.300,0.000
303756.900,290056.200,711541.300,595990.500,711386.900,711854.100,276851.800,616750.400,0.000
304023.900,290308.200,711559.100,596403.900,711405.000,711872.200,277171.300,616774.300,0.000
303886.600,290174.000,711546.700,596210.600,711392.400,711859.600,277067.100,616466.600,0.000
303580.400,289888.600,711529.200,595612.300,711374.600,711842.000,276683.400,615926.900,0.000
303670.600,289978.400,711538.100,595597.700,711383.800,711851.100,276707.900,615705.100,0.000
303955.500,290248.900,711555.900,596016.600,711401.500,711868.900,277029.800,615729.700,0.000
303910.300,290202.500,711551.400,595972.800,711396.900,711864.500,277032.300,615509.300,0.000
303577.800,289887.000,711529.200,595355.800,711374.300,711842.100,276635.400,614962.600,0.000
303599.200,289910.500,711536.200,595218.800,711381.500,711848.900,276579.900,614680.700,0.000
303886.800,290178.600,711557.400,595620.300,711402.800,711870.400,276889.000,614697.500,0.000
303927.800,290213.000,711555.600,595717.900,711401.000,711868.800,276986.500,614552.700,0.000
303599.600,289904.100,711531.800,595132.900,711376.900,711844.600,276608.300,614027.300,0.000
303533.400,289847.900,711531.000,594863.600,711375.900,711843.400,276452.100,613667.400,0.000
303807.500,290110.100,711554.700,595225.600,711399.600,711867.300,276736.100,613663.300,0.000
303930.200,290223.000,711559.600,595443.700,711404.500,711872.200,276916.800,613582.900,0.000
303619.100,289923.000,711535.000,594916.100,711380.100,711847.800,276576.700,613088.400,0.000
303490.300,289805.500,711531.100,594538.400,711376.300,711843.800,276351.300,612675.800,0.000
303727.700,290031.000,711550.300,594820.100,711395.300,711863.300,276578.400,612622.400,0.000
303921.000,290211.800,711560.600,595141.900,711406.400,711874.100,276834.300,612599.400,0.000
303663.300,289965.900,711542.800,594724.200,711388.400,711855.900,276571.700,612169.500,0.000
303463.800,289778.600,711536.000,594249.600,711381.100,711848.600,276278.300,611704.600,0.000
303653.100,289957.800,711549.400,594431.400,711394.200,711861.900,276436.400,611594.600,0.000
303893.300,290181.200,711561.100,594807.300,711406.100,711873.400,276728.000,611600.500,0.000
303697.900,289992.200,711544.100,594505.800,711388.900,711856.400,276545.500,611233.800,0.000
303434.400,289744.400,711528.700,593950.300,711373.300,711840.400,276192.700,610723.100,0.000
303578.800,289880.000,711543.100,594035.100,711387.900,711855.200,276286.900,610566.400,0.000
303854.200,290137.000,711562.000,594454.400,711407.100,711874.600,276610.500,610600.600,0.000
303739.500,290024.500,711550.800,594295.900,711395.800,711863.300,276529.500,610317.300,0.000
303438.300,289741.100,711535.100,593700.600,711380.000,711847.500,276147.400,609789.700,0.000
303512.400,289812.600,711545.600,593659.300,711390.800,711858.300,276154.300,609564.400,0.000
303794.700,290075.600,711564.100,594077.800,711409.400,711876.800,276478.200,609594.100,0.000
303769.300,290047.700,711559.700,594064.100,711404.600,711872.400,276497.500,609391.200,0.000
303445.200,289742.800,711539.400,593461.300,711384.000,711851.800,276110.900,608861.400,0.000
303444.700,289744.700,711543.600,593295.000,711388.200,711855.800,276033.000,608566.600,0.000
303722.800,290006.500,711562.400,593689.600,711407.300,711874.600,276339.400,608579.600,0.000
303794.400,290070.000,711566.900,593831.200,711412.100,711879.300,276470.900,608467.600,0.000
303473.000,289766.200,711544.500,593261.100,711389.800,711856.500,276104.800,607958.400,0.000
303395.700,289698.500,711543.300,592966.900,711388.200,711855.500,275938.100,607593.900,0.000
303649.300,289936.800,711560.900,593296.100,711406.100,711873.400,276197.000,607569.200,0.000
303794.900,290069.200,711569.600,593543.900,711414.900,711882.300,276402.400,607512.600,0.000
303503.000,289792.400,711549.900,593051.400,711395.400,711862.300,276088.200,607047.200,0.000
303349.900,289654.000,711541.700,592644.100,711386.700,711853.800,275840.300,606620.100,0.000
303575.800,289870.100,711558.700,592900.500,711403.300,711870.600,276049.500,606557.800,0.000
303778.000,290056.700,711570.300,593241.100,711414.800,711881.800,276313.100,606549.600,0.000
303527.300,289817.500,711551.300,592847.100,711395.300,711862.900,276064.900,606136.300,0.000
303313.700,289618.400,711542.100,592349.700,711386.300,711853.600,275754.500,605664.400,0.000
303500.800,289794.800,711559.800,592518.100,711404.100,711871.400,275905.100,605557.100,0.000
303756.400,290035.700,711577.400,592921.400,711421.600,711888.900,276214.800,605586.200,0.000
303579.200,289866.000,711563.600,592659.600,711408.100,711874.800,276058.400,605249.600,0.000
303294.500,289599.300,711546.000,592082.900,711390.400,711857.400,275692.300,604732.400,0.000
303414.800,289717.200,711558.300,592132.900,711402.700,711869.900,275761.800,604558.600,0.000
303692.600,289977.600,711576.600,592554.100,711420.800,711888.600,276084.300,604595.100,0.000
303602.400,289888.400,711569.100,592439.600,711413.700,711881.000,276033.300,604342.400,0.000
303289.500,289594.000,711549.300,591840.900,711393.800,711860.900,275648.300,603817.400,0.000
303352.400,289658.800,711558.900,591777.100,711403.400,711870.600,275640.900,603583.400,0.000
303639.200,289929.900,711576.500,592192.900,711421.400,711888.400,275959.400,603613.600,0.000
303639.900,289926.600,711574.900,592223.700,711419.600,711886.900,276008.200,603440.900,0.000
303303.100,289609.400,711553.900,591619.400,711398.200,711865.800,275613.900,602910.100,0.000
303283.600,289598.100,711556.900,591422.800,711401.200,711869.100,275510.400,602600.400,0.000
303565.400,289864.800,711575.900,591809.100,711420.400,711888.000,275809.700,602614.100,0.000
303648.400,289940.000,711577.600,591972.700,711422.300,711889.500,275952.800,602515.000,0.000
303328.700,289634.600,711556.600,591419.400,711401.100,711868.400,275596.700,602019.300,0.000
303233.500,289549.300,711554.500,591097.800,711399.100,711866.600,275407.700,601642.800,0.000
303489.700,289794.300,711575.400,591422.600,711420.100,711887.300,275663.500,601623.100,0.000
303649.600,289940.800,711584.300,591697.100,711428.800,711896.100,275883.500,601584.800,0.000
303366.300,289669.300,711563.000,591224.100,711407.000,711874.200,275579.900,601134.400,0.000
303190.300,289505.800,711550.800,590787.800,711395.200,711862.300,275304.100,600692.200,0.000
303414.300,289715.200,711571.100,591032.600,711415.200,711882.600,275504.300,600628.700,0.000
303639.100,289922.300,711585.600,591394.200,711429.800,711897.400,275786.100,600640.200,0.000
303414.000,289705.000,711567.900,591039.900,711412.000,711879.600,275570.000,600259.400,0.000
303167.100,289473.300,711553.300,590517.600,711397.900,711865.000,275238.200,599773.300,0.000
303331.300,289630.600,711567.600,590654.900,711411.900,711879.100,275363.600,599649.300,0.000
303592.800,289877.700,711585.300,591068.800,711429.600,711896.800,275680.800,599689.400,0.000
303437.700,289732.100,711573.300,590849.700,711417.400,711884.900,275554.900,599382.900,0.000
303152.900,289466.900,711556.800,590274.400,711400.800,711868.100,275184.500,598873.900,0.000
303255.600,289565.900,711567.100,590291.700,711411.400,711878.400,275229.800,598683.800,0.000
303537.700,289829.400,711584.200,590714.100,711428.300,711896.100,275552.600,598723.100,0.000
303473.300,289764.700,711580.100,590636.900,711424.300,711891.600,275528.300,598498.400,0.000
303151.700,289464.100,711560.600,590032.100,711404.500,711872.200,275135.500,597972.600,0.000
303194.500,289512.000,711565.800,589940.400,711410.000,711877.400,275103.200,597725.200,0.000
303491.600,289794.500,711587.300,590366.300,711431.600,711898.400,275430.100,597769.600,0.000
303505.100,289802.300,711586.100,590429.300,711430.300,711897.400,275503.100,597619.900,0.000
303169.200,289482.900,711560.900,589832.900,711404.800,711872.000,275114.800,597097.400,0.000
303137.200,289457.600,711563.300,589610.900,711406.700,711874.200,274995.800,596780.800,0.000
303417.900,289721.000,711584.600,589990.100,711427.800,711895.400,275289.400,596797.300,0.000
303526.300,289818.500,711592.300,590189.900,711435.900,711903.300,275458.500,596724.000,0.000
303203.300,289507.900,711567.800,589643.000,711411.400,711878.900,275103.400,596231.800,0.000
303089.000,289404.400,711562.800,589297.600,711406.500,711873.900,274895.800,595845.300,0.000
303338.600,289644.400,711580.900,589605.200,711424.600,711891.800,275137.500,595817.400,0.000
303518.700,289813.900,711592.300,589911.200,711436.100,711903.400,275378.000,595802.600,0.000
303238.300,289547.900,711571.100,589461.100,711414.800,711881.900,275085.000,595365.800,0.000
303051.000,289376.200,711562.300,589014.900,711406.200,711873.100,274804.800,594926.900,0.000
303254.400,289570.600,711579.100,589238.600,711422.900,711890.300,274990.000,594853.500,0.000
303481.200,289783.100,711594.300,589612.300,711438.000,711905.300,275276.000,594870.000,0.000
303273.600,289582.900,711579.900,589289.600,711423.100,711890.500,275075.300,594507.400,0.000
303029.400,289356.100,711566.000,588762.600,711409.100,711876.400,274739.400,594026.500,0.000
303173.100,289492.000,711574.800,588869.100,711418.300,711885.300,274836.700,593883.200,0.000
303444.400,289745.800,711594.100,589298.900,711437.800,711905.000,275162.200,593934.500,0.000
303309.300,289616.000,711580.700,589112.800,711424.300,711891.600,275055.800,593644.300,0.000
303010.900,289335.700,711560.700,588526.300,711404.000,711871.400,274675.800,593128.100,0.000
303111.300,289434.200,711572.100,588530.800,711415.300,711882.600,274710.500,592939.700,0.000
303398.200,289704.600,711593.800,588965.800,711436.900,711904.300,275042.900,592994.900,0.000
303344.800,289649.800,711586.900,588924.500,711429.900,711897.400,275040.800,592789.100,0.000
303024.800,289348.800,711567.400,588326.400,711410.600,711877.400,274655.100,592275.500,0.000
303043.900,289370.100,711573.900,588200.700,711417.300,711884.600,274602.700,592017.600,0.000
303331.600,289641.300,711595.300,588613.400,711438.600,711905.900,274917.600,592057.300,0.000
303371.300,289674.700,711597.100,588713.900,711440.500,711907.800,275013.600,591934.200,0.000
303037.500,289360.300,711574.200,588129.800,711417.400,711884.400,274634.200,591428.400,0.000
302976.500,289308.400,711572.400,587871.500,711415.500,711882.400,274487.400,591092.700,0.000
303243.200,289560.700,711588.800,588238.100,711432.300,711899.300,274770.300,591103.600,0.000
303361.600,289668.100,711594.900,588470.700,711438.100,711905.900,274959.600,591050.000,0.000
303054.700,289374.100,711574.400,587956.900,711417.300,711884.900,274624.900,590582.800,0.000
302920.600,289250.300,711567.600,587581.900,711410.400,711877.800,274393.700,590184.900,0.000
303163.100,289479.600,711586.100,587877.100,711428.800,711896.400,274627.000,590159.100,0.000
303357.900,289659.800,711599.000,588207.400,711442.300,711909.400,274885.600,590163.700,0.000
303097.500,289410.000,711580.900,587790.600,711423.900,711891.200,274620.100,589753.300,0.000
302891.700,289218.000,711569.900,587315.000,711412.800,711880.200,274320.800,589303.100,0.000
303093.600,289410.200,711587.100,587516.900,711429.900,711897.600,274494.700,589228.800,0.000
303335.800,289636.200,711602.900,587911.100,711445.400,711912.800,274795.800,589266.400,0.000
303144.100,289451.000,711588.900,587624.400,711431.400,711898.600,274622.300,588931.700,0.000
302878.600,289202.800,711569.500,587071.600,711412.500,711879.800,274266.800,588438.300,0.000
303026.100,289346.800,711584.600,587170.900,711427.700,711895.100,274366.700,588305.800,0.000
303300.300,289607.200,711605.200,587604.300,711448.900,711916.000,274698.500,588366.200,0.000
303192.700,289502.800,711594.600,587454.400,711437.400,711905.100,274620.500,588106.900,0.000
302886.200,289215.200,711576.800,586862.300,711419.900,711887.400,274237.900,587597.300,0.000
302963.000,289290.800,711585.800,586833.400,711429.100,711896.200,274249.300,587395.300,0.000
303250.100,289561.400,711607.400,587264.300,711450.500,711917.400,274577.000,587451.400,0.000
303220.700,289531.100,711602.600,587257.000,711445.600,711912.600,274594.700,587269.600,0.000
302889.800,289220.700,711580.900,586658.400,711424.100,711890.900,274204.400,586757.400,0.000
302887.100,289223.900,711585.300,586504.200,711428.400,711895.500,274128.300,586484.300,0.000
303182.100,289501.900,711607.300,586919.800,711450.100,711917.400,274445.400,586532.300,0.000
303236.200,289547.500,711606.200,587050.000,711448.900,711916.000,274560.300,586424.900,0.000
302914.700,289244.100,711584.300,586488.400,711427.100,711894.100,274198.500,585935.200,0.000
302845.900,289184.700,711584.700,586212.200,711427.400,711894.900,274044.500,585601.100,0.000
303111.000,289437.600,711605.000,586562.600,711447.600,711914.800,274316.200,585611.800,0.000
303244.100,289558.700,711610.800,586812.700,711453.400,711920.800,274513.200,585571.600,0.000
302949.100,289279.300,711588.500,586325.000,711431.000,711898.400,274199.600,585126.100,0.000
302793.500,289137.100,711582.200,585927.100,711424.900,711892.200,273953.900,584720.600,0.000
303027.900,289358.900,711602.900,586203.800,711445.400,711912.600,274175.100,584689.800,0.000
