EEG 1, EEG 2, EEG 3, EEG 4, EEG 5, EEG 6, EEG 7, EEG 8, TRIG
494687.100,-750000.100,31176.300,269747.200,-127607.100,300473.900,284901.900,-268777.300,0.000
494506.500,-750000.100,-338343.900,220766.100,-235630.500,452716.600,42301.660,-241637.000,0.000
696153.700,-450783.200,-375951.700,459589.800,-385302.800,573205.900,-345179.300,-234750.200,0.000
750000.100,83155.730,514519.600,461572.000,-5439.878,580510.700,-212724.900,-8490.266,0.000
750000.100,641741.300,750000.100,496260.700,374767.500,719268.400,326050.500,324344.800,0.000
750000.100,674052.800,750000.100,750000.100,534954.000,750000.100,530646.400,455809.200,0.000
750000.100,673873.600,750000.100,750000.100,721507.000,750000.100,604368.900,553058.000,0.000
750000.100,674162.100,678397.400,750000.100,673076.300,750000.100,609136.400,640588.300,0.000
750000.100,703554.600,750000.100,750000.100,659658.400,750000.100,589257.400,641155.300,0.000
750000.100,750000.100,750000.100,750000.100,677675.300,750000.100,591946.600,750000.100,0.000
750000.100,750000.100,750000.100,750000.100,750000.100,750000.100,725067.000,750000.100,0.000
750000.100,750000.100,750000.100,750000.100,750000.100,750000.100,750000.100,750000.100,0.000
750000.100,750000.100,750000.100,750000.100,750000.100,750000.100,750000.100,750000.100,0.000
750000.100,750000.100,750000.100,750000.100,750000.100,750000.100,750000.100,750000.100,0.000
750000.100,750000.100,750000.100,750000.100,750000.100,750000.100,750000.100,750000.100,0.000
750000.100,750000.100,750000.100,750000.100,750000.100,750000.100,750000.100,750000.100,0.000
750000.100,750000.100,750000.100,750000.100,750000.100,750000.100,750000.100,750000.100,0.000
750000.100,750000.100,750000.100,750000.100,750000.100,750000.100,750000.100,750000.100,0.000
750000.100,719127.300,750000.100,750000.100,750000.100,750000.100,750000.100,750000.100,0.000
724441.100,687794.900,750000.100,750000.100,750000.100,750000.100,750000.100,750000.100,0.000
695893.400,660158.600,750000.100,750000.100,750000.100,750000.100,750000.100,750000.100,0.000
670809.300,635935.600,750000.100,750000.100,750000.100,750000.100,750000.100,750000.100,0.000
647498.600,613450.800,750000.100,750000.100,750000.100,750000.100,750000.100,750000.100,0.000
625099.300,591884.300,750000.100,750000.100,750000.100,750000.100,750000.100,750000.100,0.000
605003.900,572578.800,750000.100,750000.100,750000.100,750000.100,750000.100,750000.100,0.000
587526.600,555817.800,750000.100,750000.100,750000.100,750000.100,750000.100,750000.100,0.000
571313.600,540303.600,750000.100,750000.100,750000.100,750000.100,750000.100,750000.100,0.000
555325.100,525015.300,750000.100,750000.100,750000.100,750000.100,750000.100,750000.100,0.000
540742.400,511096.500,750000.100,750000.100,750000.100,750000.100,750000.100,750000.100,0.000
528227.800,499185.700,750000.100,750000.100,750000.100,750000.100,750000.100,750000.100,0.000
516816.400,488344.400,750000.100,750000.100,750000.100,750000.100,750000.100,750000.100,0.000
505429.800,477510.100,750000.100,750000.100,750000.100,750000.100,750000.100,750000.100,0.000
494905.700,467505.900,750000.100,750000.100,750000.100,750000.100,750000.100,750000.100,0.000
486122.600,459179.600,750000.100,750000.100,750000.100,750000.100,750000.100,750000.100,0.000
478385.700,451861.800,750000.100,750000.100,750000.100,750000.100,750000.100,750000.100,0.000
470545.300,444420.800,750000.100,750000.100,750000.100,750000.100,750000.100,750000.100,0.000
462951.400,437203.700,750000.100,750000.100,750000.100,750000.100,750000.100,750000.100,0.000
456619.200,431207.500,750000.100,750000.100,750000.100,750000.100,750000.100,750000.100,0.000
451094.100,425984.300,750000.100,750000.100,750000.100,750000.100,750000.100,750000.100,0.000
445285.300,420472.500,750000.100,750000.100,750000.100,750000.100,750000.100,750000.100,0.000
439274.700,414751.500,750000.100,750000.100,750000.100,750000.100,750000.100,750000.100,0.000
434186.900,409921.600,750000.100,750000.100,750000.100,750000.100,750000.100,750000.100,0.000
429885.700,405851.500,750000.100,750000.100,750000.100,750000.100,750000.100,750000.100,0.000
425342.900,401536.600,750000.100,750000.100,750000.100,750000.100,750000.100,750000.100,0.000
420365.100,396783.500,750000.100,750000.100,750000.100,750000.100,750000.100,750000.100,0.000
416062.100,392687.000,750000.100,750000.100,750000.100,750000.100,750000.100,750000.100,0.000
412589.000,389398.600,750000.100,750000.100,750000.100,750000.100,750000.100,750000.100,0.000
409011.500,386001.100,750000.100,750000.100,750000.100,750000.100,750000.100,750000.100,0.000
404859.100,382030.000,750000.100,750000.100,750000.100,750000.100,750000.100,750000.100,0.000
401140.600,378484.000,750000.100,750000.100,750000.100,750000.100,750000.100,750000.100,0.000
398227.100,375726.100,750000.100,750000.100,750000.100,750000.100,750000.100,750000.100,0.000
395378.300,373033.000,750000.100,750000.100,750000.100,750000.100,750000.100,750000.100,0.000
391926.400,369738.200,750000.100,750000.100,750000.100,750000.100,750000.100,750000.100,0.000
388655.400,366614.700,750000.100,750000.100,750000.100,750000.100,750000.100,750000.100,0.000
386214.700,364304.500,750000.100,750000.100,750000.100,750000.100,746868.800,750000.100,0.000
383997.500,362215.700,750000.100,750000.100,750000.100,750000.100,738598.900,750000.100,0.000
381180.500,359534.100,750000.100,750000.100,750000.100,750000.100,729918.500,750000.100,0.000
378333.800,356820.200,750000.100,750000.100,750000.100,750000.100,721263.400,750000.100,0.000
376268.700,354872.700,750000.100,750000.100,750000.100,750000.100,713568.100,750000.100,0.000
374538.000,353253.200,750000.100,750000.100,750000.100,750000.100,706498.300,750000.100,0.000
372281.700,351108.300,750000.100,750000.100,750000.100,750000.100,699082.900,750000.100,0.000
369797.100,348737.600,750000.100,750000.100,750000.100,750000.100,691472.500,750000.100,0.000
368003.300,347046.400,750000.100,750000.100,750000.100,750000.100,684669.900,750000.100,0.000
366663.100,345801.600,750000.100,750000.100,750000.100,750000.100,678584.600,750000.100,0.000
364895.300,344134.500,750000.100,750000.100,750000.100,750000.100,672261.800,750000.100,0.000
362732.900,342073.800,750000.100,750000.100,750000.100,750000.100,665564.000,750000.100,0.000
361124.000,340553.800,750000.100,750000.100,750000.100,750000.100,659476.000,750000.100,0.000
360070.500,339578.000,750000.100,750000.100,750000.100,750000.100,654159.100,750000.100,0.000
358713.300,338298.500,750000.100,750000.100,750000.100,750000.100,648737.400,750000.100,0.000
356817.500,336487.600,750000.100,750000.100,750000.100,750000.100,642788.800,750000.100,0.000
355338.600,335086.700,750000.100,750000.100,750000.100,750000.100,637273.900,750000.100,0.000
354478.000,334293.900,750000.100,750000.100,750000.100,750000.100,632552.500,750000.100,0.000
353476.400,333365.200,750000.100,750000.100,750000.100,750000.100,627889.500,750000.100,0.000
351854.000,331823.400,750000.100,750000.100,750000.100,750000.100,622635.100,750000.100,0.000
350469.800,330515.300,748854.900,748916.800,748623.100,749121.200,617606.400,749536.800,0.000
349756.900,329859.400,747239.800,747301.400,747008.700,747505.300,613385.800,747920.900,0.000
349041.200,329200.000,745686.100,745747.900,745456.100,745950.900,609346.900,746366.800,0.000
347669.800,327894.100,744158.000,744219.500,743928.800,744422.000,604693.100,744838.100,0.000
346348.600,326638.800,742704.600,742766.300,742476.200,742968.400,600053.700,743384.400,0.000
345713.700,326057.300,741357.400,741419.400,741129.700,741621.100,596196.900,742036.900,0.000
345237.400,325631.000,740071.200,740133.000,739844.100,740334.200,592679.000,740750.200,0.000
344139.200,324592.100,738805.500,738866.800,738578.500,739067.700,588616.400,739483.600,0.000
342898.800,323416.900,737592.300,737653.400,737365.700,737854.200,584361.000,738270.000,0.000
342295.900,322863.100,736465.500,736526.900,736239.500,736726.800,580793.000,737142.900,0.000
341982.500,322592.200,735396.900,735458.300,735171.300,735657.600,577681.300,736073.600,0.000
341115.100,321778.000,734337.100,734398.700,734112.300,734598.100,574116.300,735013.600,0.000
339932.800,320649.100,733315.400,733377.100,733091.400,733576.100,570193.000,733991.900,0.000
339334.900,320094.300,732371.600,732433.500,732148.100,732632.200,566863.300,733048.600,0.000
339152.200,319949.200,731487.100,731549.400,731264.700,731747.900,564091.400,732163.900,0.000
338552.000,319392.900,730615.100,730677.300,730392.400,730875.500,561008.900,731290.900,0.000
337428.800,318324.000,729746.900,729808.800,729524.500,730006.800,557362.300,730422.500,0.000
336794.800,317737.100,728951.900,729013.100,728729.800,729211.500,554188.800,729626.900,0.000
336711.500,317682.600,728225.400,728286.600,728003.700,728485.300,551688.800,728901.000,0.000
336318.000,317323.300,727502.900,727564.300,727281.400,727762.400,549012.200,728178.000,0.000
335304.200,316357.100,726773.000,726834.400,726551.800,727032.000,545689.300,727447.900,0.000
334631.800,315731.300,726100.400,726161.800,725879.600,726358.900,542652.800,726775.300,0.000
334583.400,315710.600,725498.300,725560.100,725277.800,725756.800,540343.900,726172.800,0.000
334393.800,315548.600,724906.800,724968.400,724686.700,725165.300,538030.000,725580.800,0.000
333459.600,314654.700,724277.800,724339.300,724057.600,724535.800,534973.500,724951.900,0.000
332733.500,313966.100,723702.600,723764.000,723482.800,723960.500,532052.600,724376.800,0.000
332668.000,313918.100,723194.700,723255.400,722974.900,723452.300,529858.800,723868.300,0.000
332625.300,313893.700,722705.800,722766.900,722485.800,722963.300,527831.400,723379.400,0.000
331932.000,313238.100,722201.300,722262.300,721982.200,722458.700,525176.900,722875.600,0.000
331183.000,312529.600,721713.400,721774.800,721495.100,721970.900,522396.000,722387.900,0.000
331066.800,312431.500,721282.100,721343.400,721063.600,721539.300,520274.400,721956.400,0.000
331130.100,312509.900,720875.800,720937.100,720657.100,721132.400,518474.400,721549.600,0.000
330583.100,311992.000,720451.200,720512.600,720232.500,720707.700,516119.300,721125.300,0.000
329826.700,311271.500,720039.100,720100.200,719820.700,720295.100,513477.800,720713.100,0.000
329670.800,311135.900,719680.300,719741.800,719462.400,719937.300,511438.300,720354.800,0.000
329820.900,311300.100,719346.400,719407.800,719128.500,719603.300,509825.100,720020.400,0.000
329442.400,310944.300,718991.800,719053.100,718774.600,719248.300,507765.400,719666.200,0.000
328686.800,310224.300,718636.400,718697.700,718419.200,718892.800,505264.300,719310.800,0.000
328452.800,310013.700,718330.600,718392.100,718113.400,718587.000,503256.500,719005.300,0.000
328641.200,310211.200,718056.000,718117.300,717838.600,718312.100,501776.400,718730.200,0.000
328443.600,310035.700,717765.700,717827.000,717548.800,718021.600,500007.500,718440.300,0.000
327702.500,309329.800,717459.400,717520.400,717242.600,717714.800,497651.200,718133.800,0.000
327376.200,309023.700,717194.800,717255.800,716977.900,717450.400,495656.000,717869.500,0.000
327572.800,309224.400,716969.400,717030.400,716752.600,717225.100,494264.500,717644.200,0.000
327513.700,309177.700,716731.900,716793.000,716515.100,716987.800,492728.700,717406.600,0.000
326848.300,308543.900,716474.900,716536.100,716258.200,716730.600,490560.500,717149.700,0.000
326452.100,308172.900,716248.000,716308.700,716031.200,716503.200,488591.700,716922.700,0.000
326604.800,308328.300,716052.900,716113.900,715836.200,716308.200,487232.500,716727.900,0.000
326672.800,308400.900,715860.800,715921.900,715644.000,716115.700,485907.400,716535.600,0.000
326081.400,307837.000,715636.400,715697.600,715419.800,715891.800,483919.100,716311.200,0.000
325601.700,307383.700,715438.800,715499.900,715222.400,715694.100,481959.600,716113.700,0.000
325711.300,307500.500,715279.300,715340.200,715062.900,715533.900,480624.100,715954.200,0.000
325880.100,307677.500,715126.100,715187.100,714910.200,715380.900,479468.200,715801.300,0.000
325406.600,307226.700,714942.100,715003.200,714726.500,715196.900,477697.100,715617.400,0.000
324846.500,306696.400,714764.600,714825.800,714548.900,715019.600,475749.400,715440.300,0.000
324899.500,306759.800,714633.900,714695.200,714418.500,714888.800,474420.600,715309.700,0.000
325149.200,307013.800,714513.000,714574.600,714297.700,714767.900,473405.300,715188.700,0.000
324823.600,306705.600,714362.100,714423.400,714146.400,714616.800,471861.100,715037.500,0.000
324212.200,306120.900,714201.100,714262.400,713985.500,714455.100,469946.400,714876.900,0.000
324157.400,306080.500,714080.400,714141.500,713864.900,714334.900,468576.200,714756.300,0.000
324445.300,306374.800,713984.300,714045.400,713768.700,714238.500,467649.800,714660.100,0.000
324218.900,306160.900,713850.400,713911.600,713634.900,714104.400,466277.300,714526.600,0.000
323595.600,305562.800,713707.300,713768.500,713492.400,713961.400,464437.300,714383.800,0.000
323439.200,305423.600,713600.300,713661.400,713384.800,713854.300,463024.600,714276.800,0.000
323746.300,305733.000,713526.100,713587.100,713310.600,713779.800,462167.800,714202.300,0.000
323703.100,305696.300,713431.000,713492.400,713215.700,713685.100,461047.500,714107.800,0.000
323099.500,305116.000,713307.300,713368.800,713091.800,713561.400,459310.100,713984.100,0.000
322866.700,304899.500,713217.300,713278.600,713002.300,713471.400,457879.900,713894.300,0.000
323140.300,305173.100,713155.100,713216.100,712939.800,713409.100,457028.000,713831.900,0.000
323203.000,305245.500,713076.300,713137.200,712860.900,713329.900,456070.300,713753.000,0.000
322682.900,304749.400,712978.400,713038.800,712762.800,713231.700,454499.900,713655.200,0.000
322346.700,304432.800,712893.800,712954.500,712678.500,713147.400,453028.200,713570.900,0.000
322540.900,304631.500,712831.500,712892.000,712615.800,713085.300,452137.700,713508.500,0.000
322688.800,304785.000,712767.400,712828.300,712552.000,713021.100,451316.700,713444.600,0.000
322246.600,304363.800,712685.700,712746.800,712470.500,712939.300,449903.900,713363.400,0.000
321839.400,303981.500,712614.300,712675.100,712398.800,712867.700,448431.400,713292.200,0.000
322020.300,304167.500,712576.600,712637.200,712360.500,712830.100,447571.300,713254.200,0.000
322265.900,304411.400,712528.300,712589.200,712312.600,712781.600,446878.800,713205.900,0.000
321878.400,304034.400,712438.400,712499.700,712223.700,712692.200,445562.600,713116.900,0.000
321373.200,303549.000,712356.800,712418.000,712142.200,712610.500,444040.500,713035.500,0.000
321476.600,303660.500,712319.100,712380.100,712104.100,712572.700,443123.000,712997.400,0.000
321836.100,304023.200,712303.900,712364.800,712089.000,712557.200,442582.900,712982.100,0.000
321600.800,303802.400,712244.400,712305.400,712029.500,712498.100,441494.800,712923.100,0.000
320988.400,303213.400,712153.900,712214.900,711938.800,712407.800,439948.600,712832.800,0.000
320952.100,303186.900,712108.800,712170.100,711894.300,712362.800,438943.000,712787.900,0.000
321288.900,303526.100,712090.500,712151.300,711875.800,712343.800,438407.500,712769.000,0.000
321196.700,303445.500,712045.200,712106.100,711830.300,712298.600,437504.500,712724.100,0.000
320662.900,302932.800,711982.700,712043.600,711767.900,712236.300,436093.600,712662.000,0.000
320541.600,302823.000,711945.900,712006.400,711731.100,712199.300,435049.700,712625.300,0.000
320870.800,303153.400,711932.100,711993.100,711717.200,712185.600,434534.700,712611.600,0.000
320905.300,303196.800,711902.300,711963.400,711687.100,712155.800,433813.500,712581.900,0.000
320379.000,302692.100,711841.600,711902.500,711626.500,712094.700,432468.600,712521.100,0.000
320148.000,302476.500,711800.400,711860.900,711585.500,712053.600,431347.900,712479.900,0.000
320438.800,302765.900,711788.800,711849.100,711573.900,712042.300,430814.100,712468.500,0.000
320595.100,302925.100,711774.500,711834.900,711559.100,712027.600,430247.000,712454.400,0.000
320113.500,302462.100,711721.300,711782.300,711505.900,711974.500,429008.800,712401.400,0.000
319775.600,302142.700,711680.400,711741.100,711465.000,711933.400,427831.100,712360.600,0.000
320013.800,302384.200,711669.800,711730.400,711454.800,711922.900,427264.400,712350.100,0.000
320250.000,302623.700,711659.400,711719.900,711444.800,711912.600,426808.100,712339.900,0.000
319857.900,302245.400,711612.700,711673.600,711398.100,711866.300,425711.800,712293.600,0.000
319447.800,301852.200,711570.600,711631.100,711355.600,711823.900,424496.200,712251.500,0.000
319627.200,302033.500,711565.100,711625.500,711350.200,711818.100,423892.500,712245.700,0.000
319926.600,302330.300,711560.300,711621.200,711345.600,711813.400,423514.800,712241.300,0.000
319629.300,302044.800,711519.100,711580.000,711304.400,711771.900,422557.400,712200.000,0.000
319175.200,301609.300,711481.400,711542.100,711267.100,711733.800,421345.100,712162.800,0.000
319258.100,301701.500,711472.400,711533.200,711257.800,711725.000,420664.900,712153.700,0.000
319575.500,302014.900,711469.000,711529.800,711254.400,711721.900,420323.000,712150.200,0.000
319416.200,301861.800,711444.800,711505.300,711230.500,711697.900,419546.100,712126.200,0.000
318922.100,301385.100,711406.300,711467.300,711192.300,711659.100,418340.000,712088.100,0.000
318906.100,301377.400,711394.000,711454.600,711179.400,711646.600,417576.000,712075.800,0.000
319271.900,301740.100,711402.800,711463.100,711188.300,711655.500,417286.200,712084.700,0.000
319219.800,301694.300,711378.800,711439.700,711164.300,711631.100,416643.200,712060.800,0.000
318688.200,301180.400,711332.500,711393.600,711117.900,711584.800,415447.900,712014.500,0.000
318566.700,301068.500,711316.900,711377.600,711102.400,711569.100,414608.000,711998.800,0.000
318919.700,301415.600,711328.000,711388.600,711113.600,711580.300,414316.700,712010.000,0.000
318996.700,301494.200,711318.100,711378.200,711103.200,711570.300,413834.900,712000.000,0.000
318515.900,301029.800,711281.600,711341.900,711066.600,711533.900,412739.200,711963.800,0.000
318291.400,300817.900,711264.300,711324.400,711049.400,711516.500,411827.300,711946.600,0.000
318587.600,301109.800,711272.300,711332.700,711057.500,711524.600,411490.500,711954.700,0.000
318771.800,301291.300,711269.800,711330.100,711054.800,711521.900,411137.800,711952.100,0.000
318339.200,300870.900,711232.600,711292.700,711017.900,711484.300,410133.700,711914.800,0.000
318001.700,300548.200,711204.800,711265.400,710990.500,711456.600,409130.700,711887.600,0.000
318246.800,300794.600,711212.800,711273.300,710998.000,711464.300,408742.900,711895.400,0.000
318527.700,301078.000,711223.500,711284.400,711009.000,711475.400,408505.200,711906.500,0.000
318175.700,300735.300,711193.800,711254.000,710979.100,711445.300,407630.600,711876.300,0.000
317765.000,300340.000,711164.800,711225.100,710949.600,711415.400,406594.500,711847.400,0.000
317926.700,300505.200,711170.800,711231.000,710955.600,711421.400,406139.000,711853.400,0.000
318258.600,300833.600,711182.900,711243.100,710968.200,711433.600,405956.600,711866.200,0.000
318011.900,300594.000,711156.200,711216.400,710942.000,711406.800,405214.200,711839.100,0.000
317544.500,300144.300,711125.300,711185.700,710910.900,711375.900,404157.900,711808.600,0.000
317629.400,300233.300,711131.900,711192.400,710917.300,711382.200,403634.400,711815.300,0.000
317993.500,300592.900,711149.200,711209.400,710934.000,711398.900,403492.500,711832.300,0.000
317869.300,300476.600,711133.700,711193.600,710919.000,711383.600,402914.300,711817.000,0.000
317363.700,299987.800,711095.900,711155.800,710881.000,711345.800,401852.700,711779.200,0.000
317340.100,299971.500,711092.100,711152.000,710877.500,711341.700,401232.000,711775.400,0.000
317698.200,300326.500,711107.400,711167.600,710892.900,711357.600,401086.300,711791.000,0.000
317695.700,300328.300,711096.800,711157.400,710882.200,711346.400,400652.400,711780.400,0.000
317205.300,299856.700,711068.200,711128.800,710853.800,711317.500,399660.500,711752.100,0.000
317064.200,299727.400,711060.800,711120.800,710846.400,711309.600,398951.700,711744.300,0.000
317406.800,300067.700,711077.800,711137.400,710862.800,711326.400,398797.500,711761.300,0.000
317514.400,300177.400,711075.800,711135.900,710860.900,711324.600,398502.000,711759.500,0.000
317051.300,299730.200,711046.100,711106.100,710831.400,711294.900,397574.800,711730.000,0.000
316811.900,299504.500,711035.900,711095.800,710821.200,711284.300,396788.800,711720.000,0.000
317110.600,299798.800,711051.900,711111.800,710836.500,711299.700,396585.900,711735.800,0.000
317332.500,300020.200,711058.100,711118.200,710843.100,711306.200,396409.100,711742.300,0.000
316926.800,299623.800,711028.900,711089.300,710814.400,711277.000,395576.800,711713.400,0.000
316602.100,299310.700,711012.800,711073.100,710797.900,711260.400,394725.300,711697.100,0.000
316832.800,299541.700,711024.300,711084.600,710809.400,711271.700,394457.400,711709.200,0.000
317121.100,299825.400,711034.000,711094.300,710818.900,711281.200,394356.000,711718.800,0.000
316811.300,299523.500,711011.800,711072.300,710797.100,711259.000,393652.600,711696.900,0.000
316407.600,299134.800,710991.500,711052.000,710776.800,711238.700,392755.400,711677.000,0.000
316573.500,299304.000,711006.400,711066.600,710791.300,711252.900,392434.200,711691.800,0.000
316931.500,299655.800,711026.400,711086.600,710811.200,711272.600,392402.900,711711.500,0.000
316721.200,299449.700,711005.300,711065.600,710790.000,711251.100,391831.600,711690.500,0.000
316254.200,298996.300,710977.800,711037.600,710762.400,711223.100,390902.100,711662.500,0.000
316303.500,299048.600,710982.100,711042.000,710767.000,711227.600,390464.100,711667.100,0.000
316675.800,299416.500,711001.300,711061.300,710786.600,711246.700,390444.800,711686.800,0.000
316607.500,299353.600,710993.100,711052.800,710777.800,711237.800,390037.300,711678.300,0.000
316121.900,298885.400,710965.500,711025.200,710749.600,711207.900,389122.000,711650.600,0.000
316063.800,298834.300,710963.100,711022.800,710747.100,711202.900,388582.900,711648.600,0.000
316445.500,299208.900,710988.300,711047.800,710771.600,711226.000,388572.000,711673.400,0.000
316497.500,299263.400,710987.400,711046.900,710770.300,711222.600,388309.300,711672.700,0.000
316069.900,298868.400,710961.600,711021.800,710743.800,711194.600,387529.100,711647.300,0.000
315971.300,298806.400,710964.600,711024.800,710745.900,711194.600,387040.500,711650.400,0.000
316270.800,299104.900,710982.000,711042.200,710762.600,711209.600,386969.600,711667.900,0.000
316361.100,299186.800,710976.100,711035.800,710756.100,711201.000,386741.500,711661.800,0.000
315925.500,298764.700,710951.700,711011.200,710730.400,711172.900,385951.600,711637.400,0.000
315657.300,298508.700,710940.900,711000.000,710718.800,711159.300,385246.700,711626.800,0.000
315923.700,298764.300,710958.600,711018.100,710736.000,711174.800,385094.500,711644.200,0.000
316172.000,298999.800,710971.800,711031.600,710749.400,711185.700,385018.400,711658.000,0.000
315828.300,298669.700,710949.700,711009.300,710726.300,711160.100,384351.500,711635.800,0.000
315480.000,298339.100,710933.600,710992.900,710709.600,711140.400,383590.800,711619.300,0.000
315677.800,298532.900,710947.300,711006.300,710721.900,711150.600,383371.600,711633.300,0.000
315999.900,298845.500,710963.300,711022.500,710737.300,711164.100,383372.900,711649.400,0.000
315747.400,298606.700,710942.100,711001.500,710715.100,711139.600,382819.300,711628.200,0.000
315322.000,298201.400,710914.500,710973.800,710686.800,711107.900,382003.900,711600.800,0.000
315435.800,298312.600,710926.100,710985.400,710697.700,711116.300,381703.200,711612.300,0.000
315788.200,298654.600,710947.600,711007.400,710718.600,711135.300,381733.900,711634.300,0.000
315655.200,298526.300,710937.100,710996.800,710707.000,711121.100,381329.600,711623.800,0.000
315217.300,298113.400,710916.600,710976.600,710686.000,711096.800,380536.800,711603.500,0.000
315234.000,298134.200,710922.700,710982.600,710691.400,711099.400,380153.000,711609.700,0.000
315589.200,298475.200,710942.100,711001.500,710709.600,711115.300,380178.300,711628.700,0.000
315569.200,298458.300,710936.400,710995.900,710702.900,711105.700,379897.700,711623.100,0.000
315111.700,298018.600,710908.400,710968.300,710674.400,711073.300,379107.300,711595.400,0.000
315035.600,297945.800,710910.600,710970.100,710675.800,711071.300,378637.000,711597.900,0.000
315385.200,298281.400,710932.900,710992.400,710696.900,711089.400,378650.400,711620.100,0.000
315475.900,298369.500,710934.000,710993.400,710697.300,711086.800,378489.600,711621.100,0.000
315032.600,297946.400,710906.000,710965.400,710668.800,711053.800,377747.300,711593.200,0.000
314845.900,297767.500,710899.800,710959.300,710661.600,711042.600,377182.500,711587.100,0.000
315162.100,298070.600,710921.600,710981.600,710682.800,711060.600,377157.300,711609.100,0.000
315361.100,298264.100,710931.300,710991.500,710691.900,711065.400,377109.300,711618.800,0.000
314973.500,297893.200,710906.800,710966.800,710666.300,711034.100,376455.100,711594.600,0.000
314701.700,297636.600,710896.800,710956.600,710655.100,711016.900,375825.500,711584.600,0.000
314961.900,297886.700,710915.600,710975.300,710673.200,711028.200,375740.900,711603.300,0.000
315235.700,298154.600,710932.300,710991.900,710689.200,711033.300,375766.100,711620.300,0.000
314937.400,297873.300,710915.700,710975.800,710669.100,710791.800,375226.500,711604.000,0.000
314591.300,297547.600,710901.200,710961.000,710644.900,709637.400,374540.700,711589.100,0.000
314749.300,297699.000,710908.700,710968.100,710649.300,708168.000,374346.100,711596.700,0.000
315071.500,298010.300,710923.000,710982.100,710661.900,706787.400,374407.000,711610.400,0.000
314852.400,297800.700,710904.100,710963.700,710641.500,705042.400,373964.000,711591.600,0.000
314434.300,297403.200,710883.500,710942.900,710619.600,703172.300,373236.100,711571.200,0.000
314531.000,297499.100,710893.600,710952.700,710628.900,701721.900,372985.400,711581.500,0.000
314894.400,297847.900,710914.300,710973.500,710648.600,700539.800,373082.500,711602.100,0.000
314796.600,297752.700,710905.300,710964.100,710638.400,699082.100,372776.700,711593.100,0.000
314352.500,297329.000,710884.600,710944.100,710617.300,697351.300,372051.400,711573.000,0.000
314352.300,297332.300,710893.100,710952.700,710625.300,695908.400,371716.300,711581.300,0.000
314713.000,297680.200,710911.200,710970.900,710642.400,694750.200,371802.900,711599.100,0.000
314731.400,297701.500,710909.200,710968.700,710640.100,693411.900,371628.300,711597.300,0.000
314281.400,297276.200,710883.500,710942.700,710613.800,691711.500,370922.600,711571.300,0.000
314175.200,297179.800,710882.300,710941.500,710612.300,690207.900,370483.700,711570.600,0.000
314524.700,297514.300,710905.100,710964.300,710635.500,689059.000,370552.700,711593.800,0.000
314650.400,297635.900,710909.200,710968.400,710638.800,687817.600,370489.400,711597.500,0.000
314235.400,297242.900,710888.400,710947.400,710616.400,686175.100,369850.400,711576.700,0.000
314020.700,297039.600,710880.100,710939.600,710604.800,684476.000,369318.800,711569.000,0.000
314300.100,297306.400,710895.800,710955.400,710624.900,683293.600,369312.900,711584.400,0.000
314519.600,297516.300,710904.400,710963.800,710634.100,682377.300,369335.900,711592.900,0.000
314141.800,297155.800,710878.300,710937.500,710607.900,681046.100,368755.600,711567.000,0.000
313841.800,296874.600,710863.800,710923.100,710593.200,679715.400,368153.300,711552.300,0.000
314097.800,297122.300,710885.800,710945.000,710614.800,678779.700,368113.000,711574.000,0.000
314397.100,297414.200,710905.100,710964.100,710634.100,677937.200,368218.000,711593.700,0.000
314111.800,297143.200,710886.000,710945.000,710615.600,676694.400,367755.400,711574.700,0.000
313728.300,296775.400,710866.800,710924.900,710595.900,675316.900,367092.300,711555.100,0.000
313866.300,296907.200,710876.400,710934.800,710606.000,674292.800,366934.200,711564.800,0.000
314210.800,297236.300,710893.900,710953.300,710623.800,673474.300,367073.000,711582.600,0.000
314034.700,297071.400,710881.000,710940.000,710611.000,672316.800,366731.000,711569.900,0.000
313613.700,296667.800,710858.400,710917.100,710588.800,670934.900,366048.600,711547.800,0.000
313690.400,296740.800,710868.600,710927.300,710599.000,669883.400,365826.400,711558.000,0.000
314062.200,297098.900,710893.600,710951.900,710623.500,669096.600,365989.500,711582.700,0.000
313992.800,297037.800,710887.200,710945.800,710617.300,668033.900,365771.200,711576.600,0.000
313546.200,296614.100,710863.300,710921.900,710593.600,666660.800,365094.400,711552.300,0.000
313516.500,296585.700,710868.500,710926.900,710598.900,665545.500,364776.000,711557.700,0.000
313877.900,296930.000,710889.800,710948.300,710620.900,664742.300,364913.100,711578.900,0.000
313938.600,296991.300,710892.200,710950.900,710623.300,663786.300,364825.400,711581.100,0.000
313495.900,296571.500,710867.500,710926.300,710598.800,662439.500,364175.300,711556.400,0.000
313361.100,296444.600,710862.500,710921.300,710594.300,661259.300,363752.000,711552.000,0.000
313696.800,296764.500,710881.500,710940.100,710613.700,660437.600,363848.900,711570.900,0.000
313850.500,296913.000,710886.100,710944.600,710617.800,659552.600,363857.300,711575.300,0.000
313447.100,296528.300,710867.100,710925.500,710599.000,658264.600,363276.600,711556.600,0.000
313235.700,296333.400,710864.900,710923.300,710597.300,657064.300,362798.300,711554.700,0.000
313526.400,296615.400,710885.300,710944.000,710617.600,656226.100,362849.200,711574.800,0.000
313751.500,296833.800,710890.600,710949.200,710623.100,655389.800,362920.600,711580.300,0.000
313407.300,296504.800,710867.800,710926.300,710600.300,654159.100,362420.000,711557.400,0.000
313108.000,296222.700,710862.900,710921.400,710595.500,652922.000,361875.900,711552.700,0.000
313336.500,296441.000,710882.900,710941.600,710615.400,652049.700,361855.800,711572.600,0.000
313635.600,296724.900,710895.100,710953.900,710628.000,651269.000,361989.200,711584.600,0.000
313379.300,296477.200,710873.700,710932.300,710606.900,650112.100,361585.600,711563.300,0.000
313008.700,296125.600,710860.900,710919.200,710594.400,648840.000,360984.600,711550.600,0.000
313155.100,296269.700,710879.500,710938.100,710613.300,647915.100,360877.100,711569.400,0.000
313516.500,296618.000,710901.400,710960.100,710635.200,647194.200,361069.500,711591.300,0.000
313365.000,296473.500,710888.900,710947.100,710622.600,646139.600,360789.300,711578.400,0.000
312931.100,296059.300,710864.300,710922.400,710598.200,644839.200,360141.300,711553.900,0.000
312976.400,296103.500,710871.300,710929.600,710605.500,643849.000,359927.100,711561.400,0.000
313333.300,296444.700,710885.900,710944.500,710620.000,643112.800,360095.400,711576.300,0.000
313314.900,296430.500,710882.300,710940.700,710616.800,642166.400,359953.600,711572.600,0.000
312880.400,296017.500,710862.300,710921.100,710597.700,640899.800,359334.900,711552.700,0.000
312827.500,295969.200,710867.600,710926.300,710603.100,639860.400,359029.500,711557.600,0.000
313185.800,296311.500,710890.800,710949.300,710626.200,639139.900,359191.500,711580.900,0.000
313273.500,296396.700,710893.300,710951.900,710629.100,638284.900,359163.400,711583.400,0.000
312835.800,295979.600,710867.900,710926.300,710603.600,637035.800,358566.500,711557.900,0.000
312683.300,295837.500,710867.700,710926.300,710603.600,635947.900,358173.800,711557.900,0.000
313008.300,296148.000,710889.500,710948.100,710625.200,635207.100,358291.600,711579.700,0.000
313176.400,296312.600,710893.100,710951.400,710628.900,634411.600,358344.800,711583.200,0.000
312794.600,295950.300,710872.400,710930.500,710608.700,633227.900,357826.200,711562.800,0.000
312553.000,295723.100,710867.300,710925.300,710603.800,632092.000,357354.800,711557.700,0.000
312827.700,295988.000,710889.500,710947.300,710625.900,631328.000,357421.200,711579.700,0.000
313095.800,296245.400,710902.900,710961.100,710639.500,630611.500,357566.100,711593.200,0.000
312784.800,295951.800,710882.400,710940.600,710619.500,629491.900,357129.300,711572.600,0.000
312445.600,295633.500,710867.700,710925.700,710605.100,628308.400,356577.800,711557.900,0.000
312645.400,295826.300,710881.600,710939.600,710619.100,627491.400,356555.100,711571.700,0.000
312968.300,296138.300,710898.400,710956.600,710635.900,626817.300,356746.600,711588.500,0.000
312740.200,295919.800,710882.600,710940.400,710620.200,625780.300,356418.200,711572.900,0.000
312340.000,295536.300,710862.600,710920.300,710600.500,624572.100,355824.300,711553.100,0.000
312462.600,295657.400,710876.400,710934.200,710614.400,623711.700,355719.200,711566.600,0.000
312836.300,296018.800,710901.400,710959.500,710639.400,623084.300,355951.300,711591.600,0.000
312725.000,295912.500,710891.600,710949.700,710630.100,622148.400,355749.900,711582.200,0.000
312288.800,295499.300,710869.300,710927.500,710608.100,620939.000,355141.300,711560.100,0.000
312310.900,295523.400,710877.100,710935.200,710616.000,620019.400,354937.000,711567.600,0.000
312690.300,295886.900,710903.200,710961.400,710641.900,619396.400,355163.900,711594.200,0.000
312693.500,295893.100,710900.900,710959.100,710640.300,618554.900,355084.400,711591.700,0.000
312239.200,295463.500,710876.200,710934.000,710615.800,617354.500,354480.900,711567.000,0.000
312161.300,295393.800,710879.400,710937.100,710619.100,616378.700,354178.100,711570.300,0.000
312513.700,295732.000,710898.600,710956.400,710638.300,615732.800,354358.100,711589.300,0.000
312625.200,295832.900,710901.800,710959.300,710641.600,614971.000,354379.000,711592.800,0.000
312205.000,295427.100,710876.900,710934.300,710616.900,613815.700,353826.000,711567.800,0.000
312019.600,295253.300,710872.400,710930.200,710612.400,612779.600,353425.900,711563.300,0.000
312335.300,295557.500,710894.300,710951.700,710634.300,612114.200,353559.700,711585.200,0.000
312550.300,295764.700,710902.900,710960.600,710643.400,611434.900,353680.400,711594.000,0.000
312187.600,295420.600,710883.400,710941.100,710624.300,610346.900,353210.900,711574.700,0.000
311917.600,295163.600,710874.600,710931.800,710615.400,609268.700,352739.500,711565.600,0.000
312186.000,295421.500,710897.800,710955.100,710638.600,608577.800,352817.200,711588.100,0.000
312475.700,295699.800,710911.400,710969.000,710652.400,607956.100,353005.900,711602.100,0.000
312172.400,295411.500,710888.400,710945.600,710629.900,606923.400,352610.500,711579.100,0.000
311828.100,295086.000,710874.800,710931.900,710616.000,605813.300,352073.000,711565.400,0.000
312019.300,295269.800,710894.800,710952.200,710636.100,605078.400,352068.000,711585.900,0.000
312357.800,295592.300,710912.900,710970.500,710654.900,604495.100,352298.500,711604.400,0.000
312160.300,295401.800,710896.800,710954.400,710638.900,603556.700,352023.400,711588.000,0.000
311763.400,295025.000,710883.300,710940.600,710625.200,602437.200,351459.400,711574.200,0.000
311861.300,295120.900,710893.300,710950.600,710635.400,601634.700,351350.000,711584.200,0.000
312232.300,295477.200,710914.800,710972.400,710657.300,601077.100,351596.300,711606.100,0.000
312156.900,295408.600,710907.800,710965.100,710650.900,600244.600,351454.100,711599.400,0.000
311718.300,294990.600,710885.800,710942.900,710628.900,599109.400,350866.900,711577.500,0.000
311708.700,294983.100,710889.400,710946.800,710632.600,598239.200,350648.800,711581.100,0.000
312079.000,295340.400,710911.400,710968.500,710654.400,597680.800,350881.200,711602.900,0.000
312124.100,295386.200,710912.100,710969.300,710655.300,596944.900,350860.700,711603.600,0.000
311682.900,294961.900,710888.500,710945.600,710631.400,595828.900,350291.700,711579.800,0.000
311573.500,294857.400,710889.600,710946.500,710632.900,594904.300,349981.700,711580.900,0.000
311930.200,295196.700,710913.200,710969.800,710656.700,594336.100,350181.800,711604.600,0.000
312076.800,295337.300,710919.200,710975.900,710662.800,593681.700,350264.400,711610.800,0.000
311670.300,294949.800,710896.100,710951.900,710639.300,592613.800,349751.300,711586.700,0.000
311463.700,294756.300,710890.800,710947.000,710634.300,591637.500,349351.000,711582.100,0.000
311772.800,295053.700,710912.400,710969.100,710656.300,591038.600,349494.200,711604.000,0.000
312020.900,295291.300,710926.600,710983.000,710670.500,590457.900,349667.500,711618.100,0.000
311661.000,294946.400,710902.900,710959.300,710646.800,589447.100,349224.500,711594.300,0.000
311360.500,294661.700,710886.600,710943.300,710631.200,588416.900,348739.400,711578.400,0.000
311601.800,294890.500,710901.400,710958.100,710646.300,587765.200,348795.500,711593.100,0.000
311911.100,295186.900,710916.500,710973.200,710661.500,587229.400,349016.200,711608.100,0.000
311656.600,294948.800,710900.200,710956.800,710645.400,586313.400,348691.500,711591.400,0.000
311291.300,294605.300,710886.800,710943.100,710632.100,585267.300,348164.300,711578.400,0.000
311460.800,294769.700,710905.400,710961.800,710650.400,584586.600,348153.200,711596.600,0.000
311805.200,295098.700,710922.100,710979.200,710667.800,584075.300,348403.300,711613.500,0.000
311645.100,294944.900,710909.000,710965.900,710654.900,583234.800,348186.100,711600.800,0.000
311245.300,294565.700,710891.600,710948.300,710637.700,582186.400,347643.400,711583.600,0.000
311311.700,294628.700,710900.100,710956.100,710646.100,581435.300,347524.000,711591.800,0.000
311678.600,294979.800,710919.500,710975.300,710665.400,580941.800,347782.700,711610.800,0.000
311634.400,294937.800,710916.100,710972.000,710662.200,580208.300,347696.900,711607.200,0.000
311193.400,294518.000,710895.000,710951.200,710641.600,579153.500,347137.400,711586.500,0.000
311165.000,294494.200,710898.900,710955.300,710645.700,578347.500,346922.200,711590.400,0.000
311540.100,294854.800,710923.400,710979.900,710670.300,577860.900,347174.200,711615.100,0.000
311612.300,294925.800,710926.600,710983.000,710673.700,577216.600,347207.000,711618.300,0.000
311183.900,294520.100,710905.300,710961.100,710651.700,576193.100,346683.900,711596.900,0.000
311035.100,294380.200,710898.900,710954.800,710645.700,575307.600,346351.800,711590.300,0.000
311369.400,294698.800,710919.400,710975.300,710666.300,574785.600,346546.500,711610.600,0.000
311543.400,294864.100,710925.400,710981.700,710672.800,574213.300,346668.300,711617.100,0.000
311152.800,294490.900,710901.400,710957.500,710649.100,573224.600,346189.700,711593.400,0.000
310926.600,294278.300,710896.200,710952.300,710644.100,572305.400,345788.200,711588.100,0.000
311216.900,294554.200,710914.000,710970.300,710662.100,571758.900,345922.800,711605.800,0.000
311491.700,294816.900,710930.900,710987.400,710679.200,571269.600,346140.100,711622.700,0.000
311174.400,294513.100,710916.400,710972.800,710664.600,570363.200,345762.500,711608.100,0.000
310854.500,294209.700,710903.000,710959.100,710651.200,569392.700,345283.200,711594.800,0.000
311074.200,294424.400,710921.300,710977.100,710669.400,568807.100,345346.000,711612.900,0.000
311397.300,294735.400,710939.400,710995.400,710687.900,568347.500,345598.800,711631.500,0.000
311167.700,294517.000,710922.100,710978.400,710670.900,567513.700,345318.300,711613.900,0.000
310791.600,294158.300,710903.500,710960.200,710653.100,566527.400,344802.100,711596.300,0.000
310943.200,294301.500,710921.300,710977.800,710670.700,565895.900,344782.500,711613.800,0.000
311307.900,294648.600,710942.500,710999.000,710691.800,565464.600,345060.700,711634.900,0.000
311178.400,294524.600,710930.200,710986.900,710679.800,564719.800,344892.900,711622.600,0.000
310750.700,294117.700,710908.100,710964.800,710658.000,563716.900,344341.600,711600.400,0.000
310791.800,294157.200,710915.500,710971.800,710665.400,563005.900,344205.500,711607.800,0.000
311172.600,294522.100,710937.900,710994.600,710687.900,562586.100,344485.700,711630.600,0.000
311170.100,294519.900,710932.900,710989.600,710682.900,561940.600,344445.800,711625.400,0.000
310731.600,294099.700,710908.900,710965.300,710659.000,560949.900,343904.700,711601.400,0.000
310682.600,294054.400,710915.700,710971.900,710665.900,560197.700,343687.300,711608.300,0.000
311050.300,294404.800,710939.600,710996.000,710690.600,559763.600,343938.800,711632.600,0.000
311157.200,294507.100,710945.200,711001.300,710696.000,559208.100,344014.900,711637.600,0.000
310727.200,294098.500,710921.900,710978.000,710672.600,558250.100,343514.000,711614.100,0.000
310561.800,293940.800,710917.100,710973.600,710668.400,557421.300,343184.000,711609.900,0.000
310891.600,294257.400,710935.900,710992.200,710686.800,556953.300,343377.200,711628.800,0.000
311096.600,294457.300,710945.400,711001.200,710695.600,556467.600,343544.800,711637.200,0.000
310722.300,294103.500,710925.900,710981.400,710676.700,555569.700,343115.800,711617.800,0.000
310473.600,293870.000,710917.800,710973.200,710668.900,554704.900,342712.600,711610.200,0.000
310749.200,294133.700,710938.300,710994.200,710689.500,554212.100,342846.800,711630.400,0.000
311028.900,294402.600,710953.100,711009.000,710704.300,553782.800,343078.600,711645.100,0.000
310731.300,294117.000,710934.600,710990.000,710685.800,552954.600,342738.400,711626.600,0.000
310395.000,293798.100,710918.900,710974.400,710670.400,552038.600,342258.200,711611.400,0.000
310588.200,293982.100,710932.400,710987.800,710684.300,551485.900,342300.700,711625.100,0.000
310935.900,294311.500,710956.000,711011.200,710708.000,551105.400,342592.700,711648.400,0.000
310736.500,294119.400,710943.100,710998.600,710695.000,550358.600,342362.100,711635.300,0.000
310335.500,293738.700,710922.400,710977.600,710674.600,549416.800,341837.400,711614.400,0.000
310451.100,293848.500,710933.800,710989.400,710686.600,548819.800,341797.000,711626.200,0.000
310820.600,294201.200,710954.300,711010.300,710706.900,548447.600,342088.700,711646.800,0.000
310731.700,294115.500,710945.400,711001.000,710697.800,547789.500,341973.900,711637.800,0.000
310301.800,293706.800,710925.600,710980.800,710678.500,546849.800,341441.300,711618.000,0.000
310323.800,293730.600,710933.400,710988.800,710686.600,546194.100,341302.900,711625.800,0.000
310699.800,294089.700,710955.800,711011.200,710708.700,545826.300,341591.000,711648.600,0.000
310714.600,294104.500,710951.200,711006.300,710704.300,545247.900,341584.200,711643.800,0.000
310282.200,293693.900,710927.900,710983.100,710681.100,544324.300,341063.800,711620.500,0.000
310204.800,293622.900,710931.500,710986.500,710684.700,543606.900,340826.400,711624.100,0.000
310566.300,293967.000,710954.400,711009.500,710707.900,543220.800,341077.400,711646.900,0.000
310692.900,294088.300,710956.800,711011.600,710710.500,542726.800,341177.800,711649.600,0.000
310289.700,293703.800,710935.200,710989.400,710688.900,541845.600,340709.100,711627.800,0.000
310109.400,293533.900,710930.900,710985.100,710684.600,541074.800,340381.100,711623.500,0.000
310434.400,293842.200,710953.100,711007.900,710707.200,540672.800,340586.300,711646.100,0.000
310649.300,294048.700,710962.200,711017.000,710716.600,540251.400,340773.600,711654.800,0.000
310294.200,293712.000,710942.700,710997.100,710696.900,539424.400,340374.300,711634.900,0.000
310031.500,293461.600,710933.800,710988.400,710687.900,538608.900,339970.000,711626.500,0.000
310294.300,293708.900,710953.700,711008.300,710708.100,538161.400,340097.800,711646.600,0.000
310595.700,294000.200,710965.600,711020.100,710720.100,537795.900,340355.200,711658.300,0.000
310323.200,293743.600,710948.900,711003.600,710703.900,537040.100,340052.300,711641.700,0.000
309965.100,293404.100,710932.600,710987.100,710687.800,536166.900,339566.300,711625.600,0.000
310154.200,293586.300,710949.500,711004.000,710704.100,535672.400,339612.500,711642.100,0.000
310512.100,293930.100,710969.100,711023.900,710724.200,535353.300,339915.900,711662.100,0.000
310338.000,293766.800,710957.600,711012.700,710713.400,534684.800,339725.900,711650.800,0.000
309925.600,293374.700,710936.600,710991.400,710692.400,533793.800,339206.400,711629.900,0.000
310013.700,293457.800,710945.100,710999.800,710700.700,533225.600,339144.000,711638.100,0.000
310399.800,293827.200,710967.200,711021.800,710722.800,532919.100,339455.600,711660.400,0.000
310349.500,293778.700,710962.600,711017.300,710718.400,532345.700,339389.000,711655.500,0.000
309913.000,293358.100,710939.000,710993.300,710694.900,531452.600,338860.300,711632.400,0.000
309889.000,293333.800,710938.900,710993.800,710695.500,530809.800,338684.200,711632.400,0.000
310270.000,293698.100,710964.300,711018.800,710720.900,530502.100,338982.900,711657.400,0.000
310321.500,293749.400,710964.900,711019.600,710721.300,530007.600,339023.600,711658.100,0.000
309896.600,293343.700,710941.400,710996.100,710698.200,529143.900,338527.800,711634.900,0.000
309791.900,293245.100,710942.600,710997.300,710699.800,528457.900,338273.700,711636.100,0.000
310149.300,293587.900,710968.200,711023.000,710725.200,528124.800,338529.600,711661.600,0.000
310309.400,293738.500,710976.300,711030.800,710733.100,527708.900,338677.800,711669.600,0.000
309908.200,293354.600,710952.800,711006.900,710709.600,526881.000,338229.900,711646.100,0.000
309693.800,293148.600,710944.100,710997.900,710701.100,526129.100,337874.400,711637.400,0.000
310010.900,293450.500,710968.300,711022.100,710725.400,525766.900,338072.800,711661.400,0.000
310274.300,293703.400,710984.600,711038.800,710742.100,525431.400,338313.300,711678.300,0.000
309934.200,293376.000,710962.900,711017.400,710720.700,524662.100,337943.600,711656.900,0.000
309635.400,293089.400,710947.900,711002.300,710705.600,523860.900,337512.400,711641.300,0.000
309873.500,293315.900,710965.500,711019.400,710723.200,523441.000,337624.700,711658.800,0.000
310193.100,293620.700,710985.100,711038.900,710742.700,523143.200,337916.700,711678.600,0.000
309950.500,293387.600,710970.900,711024.100,710728.200,522455.800,337653.600,711663.800,0.000
309586.600,293040.700,710953.900,711007.300,710711.500,521631.700,337177.500,711646.700,0.000
309744.900,293193.300,710968.700,711022.400,710726.900,521158.300,337200.300,711661.900,0.000
310117.200,293549.800,710988.800,711042.400,710746.400,520885.400,337517.300,711682.200,0.000
309957.900,293396.700,710971.300,711025.500,710729.300,520263.100,337348.800,711665.000,0.000
309534.500,292991.400,710949.800,711003.600,710708.300,519410.200,336830.500,711643.600,0.000
309609.800,293068.300,710962.800,711016.700,710721.500,518888.300,336768.000,711656.600,0.000
309996.900,293441.000,710988.100,711041.800,710746.900,518632.200,337093.800,711681.900,0.000
309961.800,293408.500,710980.900,711034.900,710740.200,518111.800,337056.700,711674.500,0.000
309522.400,292990.200,710955.900,711009.600,710715.100,517266.700,336540.800,711649.600,0.000
309488.000,292959.100,710959.900,711013.400,710718.900,516670.600,336366.400,711653.500,0.000
309867.300,293322.000,710986.800,711040.600,710745.800,516403.400,336665.300,711680.600,0.000
309953.900,293405.200,710989.600,711043.600,710748.300,515979.600,336748.500,711683.300,0.000
309524.800,292996.900,710964.600,711018.300,710723.400,515162.000,336262.900,711658.500,0.000
309389.700,292870.700,710963.300,711016.600,710722.400,514507.400,335992.400,711656.700,0.000
309736.900,293201.600,710987.000,711040.400,710745.900,514214.700,336243.900,711680.400,0.000
309924.200,293379.400,710995.900,711049.900,710755.100,513865.200,336423.500,711689.700,0.000
309535.100,293006.100,710970.600,711024.100,710730.300,513089.800,335997.200,711664.400,0.000
309306.700,292791.000,710962.900,711016.000,710722.600,512376.900,335639.700,711656.400,0.000
309602.000,293072.300,710984.500,711037.800,710744.200,512045.200,335825.700,711677.900,0.000
309865.300,293325.300,710996.300,711049.600,710755.600,511747.200,336071.900,711689.800,0.000
309544.500,293019.700,710972.900,711026.300,710732.700,511035.400,335729.300,711666.400,0.000
309238.100,292728.600,710963.000,711016.100,710723.100,510289.300,335310.300,711656.700,0.000
309461.800,292944.200,710982.100,711035.300,710742.400,509906.900,335416.000,711675.600,0.000
309790.800,293259.000,710999.300,711052.800,710759.900,509652.500,335717.100,711692.800,0.000
309573.700,293047.100,710982.400,711035.700,710743.300,509030.500,335487.400,711676.000,0.000
309202.500,292692.300,710965.900,711018.800,710726.600,508249.200,335009.100,711659.300,0.000
309333.800,292817.800,710978.700,711031.800,710739.100,507805.200,335014.100,711671.800,0.000
309702.800,293167.400,711000.800,711054.200,710761.400,507576.600,335335.600,711694.100,0.000
309595.700,293065.200,710992.200,711045.800,710752.900,507044.300,335226.400,711685.800,0.000
309170.800,292661.600,710968.900,711022.200,710730.300,506240.000,334717.600,711662.900,0.000
309212.600,292704.800,710976.100,711029.300,710737.500,505734.900,334624.800,711670.100,0.000
309597.700,293074.800,711001.600,711054.400,710762.700,505517.800,334949.900,711695.300,0.000
309601.300,293079.600,710996.900,711049.600,710758.000,505068.800,334953.200,711690.600,0.000
309160.200,292659.400,710971.600,711024.100,710732.700,504265.800,334444.000,711665.100,0.000
309102.900,292608.000,710976.800,711029.400,710738.100,503700.900,334256.300,711670.100,0.000
309478.300,292969.300,711002.400,711055.100,710763.500,503472.100,334555.000,711695.700,0.000
309590.500,293077.300,711004.900,711057.700,710766.100,503109.800,334671.600,711698.400,0.000
309177.700,292680.600,710982.800,711035.800,710744.500,502355.400,334220.400,711676.400,0.000
309014.800,292524.500,710977.300,711030.600,710739.100,501718.400,333928.700,711671.100,0.000
309343.200,292838.600,710999.300,711052.500,710761.000,501447.700,334166.300,711693.000,0.000
309549.600,293036.600,711009.100,711061.900,710770.600,501152.100,334372.100,711702.800,0.000
309183.300,292687.100,710986.100,711038.400,710747.300,500444.800,333983.100,711679.600,0.000
308936.300,292456.000,710979.100,711031.900,710741.100,499772.100,333620.300,711672.800,0.000
309213.600,292723.700,710997.500,711050.500,710759.900,499464.300,333787.500,711691.300,0.000
309502.400,293001.900,711012.000,711064.800,710774.300,499224.800,334063.500,711705.600,0.000
309219.200,292733.100,710995.400,711048.000,710757.400,498593.300,333773.300,711689.100,0.000
308879.700,292410.300,710980.800,711033.400,710742.900,497866.300,333329.900,711674.500,0.000
309072.100,292591.900,710996.100,711049.100,710758.600,497495.700,333401.800,711689.800,0.000
309410.700,292916.100,711011.100,711064.200,710773.700,497283.400,333713.200,711704.700,0.000
309225.200,292738.900,710995.700,711049.100,710758.900,496725.800,333529.300,711689.900,0.000
308843.500,292374.600,710980.900,711033.800,710744.200,495985.800,333059.300,711675.400,0.000
308957.200,292482.300,710993.400,711046.100,710756.000,495569.500,333050.500,711687.600,0.000
309332.000,292841.900,711014.900,711067.100,710777.100,495387.800,333386.000,711708.600,0.000
309252.400,292767.600,711007.600,711059.800,710770.100,494919.100,333316.700,711700.900,0.000
308821.600,292354.100,710983.200,711035.700,710746.400,494146.800,332807.600,711676.900,0.000
308838.400,292373.000,710990.500,711042.800,710753.600,493664.200,332697.200,711684.300,0.000
309227.700,292746.300,711016.700,711068.800,710779.800,493491.700,333032.200,711710.700,0.000
309260.600,292776.600,711017.600,711070.100,710781.300,493111.000,333080.000,711711.800,0.000
308819.800,292353.300,710991.600,711044.200,710755.300,492356.000,332586.900,711685.900,0.000
308723.600,292261.500,710989.400,711041.800,710753.300,491796.100,332360.400,711683.900,0.000
309077.600,292598.700,711010.100,711062.300,710773.600,491584.000,332639.100,711704.300,0.000
309221.000,292738.200,711014.300,711066.700,710777.800,491276.300,332790.300,711708.800,0.000
308831.000,292371.000,710992.600,711044.600,710756.300,490575.800,332366.100,711686.800,0.000
308655.000,292206.400,710991.400,711043.600,710755.200,489981.900,332073.600,711685.400,0.000
308972.200,292512.600,711014.100,711066.800,710778.200,489745.900,332303.600,711708.300,0.000
309207.500,292739.500,711025.200,711077.900,710789.300,489508.400,332538.900,711719.400,0.000
308854.500,292402.400,711002.600,711054.900,710766.900,488849.400,332171.400,711696.900,0.000
308592.300,292153.400,710996.900,711049.400,710761.400,488207.800,331801.300,711691.800,0.000
308851.000,292399.200,711015.600,711068.100,710780.300,487922.800,331952.200,711710.600,0.000
309144.800,292677.300,711027.200,711079.700,710791.700,487715.000,332230.000,711721.700,0.000
308881.500,292421.800,711008.400,711060.600,710773.100,487128.700,331963.700,711702.900,0.000
308527.200,292082.700,710990.600,711042.200,710755.400,486423.000,331513.600,711685.200,0.000
308703.300,292251.500,711003.800,711055.700,710768.500,486081.400,331578.600,711698.300,0.000
309067.200,292599.000,711025.600,711077.700,710789.900,485930.800,331916.500,711719.800,0.000
308916.100,292454.100,711017.800,711069.800,710782.800,485442.500,331776.700,711712.100,0.000
308511.400,292065.500,710997.600,711048.800,710762.800,484719.400,331290.600,711692.300,0.000
308602.300,292155.000,711009.800,711060.800,710775.100,484322.600,331259.800,711704.400,0.000
308992.000,292527.900,711034.400,711086.300,710799.800,484180.200,331600.200,711729.000,0.000
308936.700,292472.000,711024.400,711076.200,710789.900,483756.900,331552.200,711719.200,0.000
308497.400,292048.000,711000.800,711051.600,710766.600,483028.000,331054.700,711695.700,0.000
308478.300,292030.600,711005.400,711056.300,710771.500,482558.600,330916.300,711700.300,0.000
308860.600,292396.200,711030.800,711082.100,710796.900,482406.300,331239.300,711725.800,0.000
308930.800,292465.000,711032.300,711083.500,710798.400,482085.800,331324.900,711727.300,0.000
308502.900,292057.300,711005.300,711055.800,710771.800,481375.500,330851.500,711700.500,0.000
308389.400,291951.600,711005.400,711054.900,710771.800,480846.700,330619.300,711700.700,0.000
308741.000,292287.300,711028.600,711078.700,710795.500,480671.900,330898.300,711724.100,0.000
308913.600,292455.200,711033.000,711083.300,710799.900,480420.500,331074.400,711728.600,0.000
308522.800,292080.400,711010.200,711059.400,710777.300,479758.200,330659.200,711705.800,0.000
308313.700,291883.800,711006.400,711055.400,710774.100,479174.100,330337.900,711702.300,0.000
308624.200,292182.400,711030.600,711080.100,710798.400,478969.400,330561.500,711726.200,0.000
308887.800,292434.100,711045.800,711095.400,710812.900,478788.300,330828.900,711741.400,0.000
308558.600,292118.900,711026.400,711075.400,710793.600,478184.800,330495.900,711722.100,0.000
308248.300,291821.800,711006.200,711054.400,710774.000,477528.300,330076.900,711702.100,0.000
308486.100,292048.500,711023.100,711071.700,710791.300,477258.000,330208.200,711719.200,0.000
308805.200,292355.800,711038.600,711088.000,710806.800,477103.300,330516.900,711734.500,0.000
308565.800,292127.800,711021.600,711070.200,710789.900,476569.400,330284.200,711717.800,0.000
308210.000,291788.500,711008.500,711056.300,710777.400,475908.300,329841.400,711705.100,0.000
308361.100,291934.500,711021.400,711069.000,710790.500,475584.400,329884.000,711718.400,0.000
308729.400,292287.400,711040.700,711088.500,710809.300,475465.400,330226.200,711737.100,0.000
308607.800,292172.400,711032.200,711079.900,710801.100,475034.200,330124.200,711728.700,0.000
308186.600,291772.300,711011.800,711058.100,710781.100,474339.700,329640.900,711708.400,0.000
308238.700,291823.900,711019.700,711065.700,710789.200,473944.500,329578.600,711716.300,0.000
308625.200,292191.600,711043.200,711089.700,710812.500,473834.800,329925.000,711739.600,0.000
308606.800,292174.900,711039.500,711086.300,710809.300,473481.900,329931.100,711736.400,0.000
308163.300,291753.200,711013.100,711059.000,710783.100,472783.600,329441.300,711710.000,0.000
308130.200,291724.500,711017.400,711063.000,710787.600,472338.300,329295.700,711714.400,0.000
308493.600,292071.300,711037.600,711083.900,710808.100,472200.600,329602.300,711734.600,0.000
308581.800,292155.100,711037.600,711083.600,710807.500,471918.000,329706.100,711734.600,0.000
308169.000,291761.600,711014.700,711059.700,710785.300,471262.600,329260.900,711712.300,0.000
308040.900,291641.000,711015.800,711061.100,710786.900,470762.100,329022.400,711713.600,0.000
308394.000,291977.800,711040.500,711086.000,710811.300,470619.200,329302.800,711737.900,0.000
308584.000,292158.900,711046.900,711092.800,710817.600,470409.900,329503.300,711744.300,0.000
308206.100,291798.100,711021.900,711066.900,710793.100,469788.000,329107.500,711719.600,0.000
307977.200,291582.800,711014.900,711059.400,710786.500,469221.600,328771.300,711713.000,0.000
308274.000,291867.200,711038.800,711083.100,710810.000,469036.400,328985.900,711736.400,0.000
308556.600,292139.300,711056.500,711101.500,710827.800,468904.700,329279.900,711754.500,0.000
308239.300,291833.900,711036.600,711080.800,710807.900,468341.400,328961.100,711734.500,0.000
307926.200,291537.300,711023.000,711066.100,710794.800,467722.100,328549.200,711721.100,0.000
308145.500,291750.100,711036.400,711079.900,710808.400,467475.000,328675.500,711734.600,0.000
308483.200,292075.200,711054.100,711098.300,710825.800,467369.500,329011.700,711752.300,0.000
308259.900,291857.100,711040.400,711083.900,710812.600,466881.000,328795.000,711738.900,0.000
307877.300,291488.900,711021.400,711063.600,710793.800,466221.600,328313.100,711719.800,0.000
308031.100,291642.100,711034.800,711077.100,710807.500,465931.300,328358.800,711733.300,0.000
308420.500,292019.900,711055.900,711098.800,710828.100,465859.000,328735.000,711754.100,0.000
308299.900,291900.100,711045.600,711088.100,710817.900,465452.800,328635.800,711743.800,0.000
307857.500,291467.000,711021.200,711063.200,710794.400,464763.800,328114.500,711720.400,0.000
307910.800,291520.300,711029.700,711071.300,710802.800,464403.400,328056.700,711728.800,0.000
308317.300,291916.900,711054.600,711096.800,710827.800,464340.500,328437.600,711753.400,0.000
308314.700,291915.200,711051.100,711093.200,710824.800,464025.600,328466.400,711749.900,0.000
307859.600,291476.400,711025.800,711067.100,710799.600,463342.800,327950.400,711724.800,0.000
307817.800,291438.300,711030.600,711071.500,710804.400,462914.600,327784.700,711730.000,0.000
308219.400,291826.000,711055.900,711097.200,710829.300,462840.500,328138.700,711755.100,0.000
308326.500,291926.200,711057.400,711098.500,710830.600,462609.300,328279.500,711756.400,0.000
307883.800,291494.800,711032.700,711073.300,710807.300,461958.900,327805.900,711732.300,0.000
307729.300,291350.900,711028.800,711068.600,710803.400,461464.800,327537.400,711728.700,0.000
308084.400,291696.500,711051.600,711092.000,710826.100,461354.000,327830.600,711751.400,0.000
308301.100,291907.300,711061.000,711101.500,710835.400,461199.100,328074.400,711760.600,0.000
307920.300,291536.400,711038.500,711078.600,710813.400,460604.600,327675.300,711738.300,0.000
307661.600,291287.900,711030.100,711069.600,710806.000,460045.300,327308.500,711730.300,0.000
307955.500,291575.200,711052.000,711091.600,710827.600,459888.300,327527.600,711752.200,0.000
308261.300,291872.000,711067.500,711108.100,710843.000,459796.300,327851.800,711767.400,0.000
307953.800,291570.300,711045.800,711085.600,710821.300,459266.400,327543.700,711745.500,0.000
307611.500,291236.800,711029.600,711067.900,710805.400,458653.300,327095.700,711730.000,0.000
307841.100,291459.300,711047.500,711086.200,710823.300,458442.000,327226.800,711747.700,0.000
308214.300,291824.300,711068.800,711107.900,710844.100,458396.100,327605.300,711768.600,0.000
308008.400,291622.300,711054.100,711093.000,710829.900,457956.300,327417.800,711754.300,0.000
307599.700,291222.900,711032.600,711070.100,710808.600,457312.300,326920.300,711733.100,0.000
307730.400,291351.800,711043.700,711081.300,710819.700,457030.500,326944.000,711744.200,0.000
308129.100,291740.700,711070.200,711108.600,710846.600,456999.400,327337.200,711770.700,0.000
308037.100,291646.100,711060.400,711098.600,710836.800,456647.000,327273.700,711761.300,0.000
307587.800,291210.400,711033.300,711070.300,710810.100,455984.400,326751.100,711734.400,0.000
307619.800,291246.700,711041.100,711078.300,710818.300,455638.000,326670.800,711742.300,0.000
308028.000,291648.200,711066.600,711104.100,710843.400,455605.400,327053.000,711767.400,0.000
308063.600,291680.300,711066.300,711103.600,710843.100,455349.700,327124.800,711766.600,0.000
307601.700,291229.500,711039.800,711076.400,710817.300,454696.600,326615.000,711740.800,0.000
307518.800,291150.500,711039.300,711075.800,710817.100,454270.700,326414.700,711740.800,0.000
307910.000,291529.600,711064.600,711101.300,710842.200,454216.900,326757.600,711765.800,0.000
308057.900,291673.700,711072.300,711109.100,710849.600,454044.700,326937.700,711773.100,0.000
307632.000,291259.300,711048.400,711084.700,710826.000,453436.400,326482.800,711749.600,0.000
307447.500,291082.600,711043.600,711078.900,710821.400,452948.400,326187.300,711744.900,0.000
307794.200,291421.300,711066.900,711102.600,710845.300,452855.100,326470.500,711768.600,0.000
308041.500,291662.100,711079.500,711115.500,710857.700,452750.800,326747.600,711780.900,0.000
307669.800,291298.800,711057.100,711092.500,710835.800,452190.900,326368.200,711758.900,0.000
307389.100,291027.700,711046.700,711080.900,710825.600,451638.500,325979.800,711748.900,0.000
307673.500,291305.300,711067.500,711102.000,710845.900,451494.500,326182.900,711769.600,0.000
307997.800,291621.800,711082.800,711118.000,710860.900,451439.000,326523.500,711784.400,0.000
307709.400,291339.400,711061.900,711096.600,710840.300,450950.800,326243.800,711763.500,0.000
307342.400,290987.200,711043.800,711077.700,710822.700,450350.000,325783.700,711745.900,0.000
307548.000,291190.800,711061.800,711095.800,710840.600,450151.300,325895.500,711764.100,0.000
307929.600,291559.400,711083.100,711117.600,710861.800,450135.200,326283.300,711785.200,0.000
307752.700,291385.200,711069.400,711103.300,710848.000,449737.600,326127.100,711771.500,0.000
307325.100,290972.500,711046.100,711079.600,710826.000,449104.200,325616.200,711749.400,0.000
307435.600,291080.900,711057.600,711091.400,710838.100,448837.300,325623.200,711761.000,0.000
307842.100,291472.600,711083.100,711117.100,710863.400,448831.500,326020.200,711786.000,0.000
307785.400,291414.700,711075.400,711109.100,710855.700,448523.600,325991.400,711778.400,0.000
307328.400,290968.800,711049.800,711082.500,710831.000,447883.800,325470.800,711753.400,0.000
307317.200,290958.800,711054.000,711086.600,710835.200,447528.500,325353.300,711757.800,0.000
307725.300,291353.100,711077.500,711110.100,710857.800,447506.700,325724.500,711780.400,0.000
307795.300,291419.000,711077.800,711110.800,710858.200,447297.800,325830.500,711780.500,0.000
307344.400,290978.000,711052.000,711084.100,710833.000,446679.300,325337.300,711755.400,0.000
307240.100,290878.800,711051.600,711082.900,710832.700,446263.300,325122.200,711755.200,0.000
307624.600,291253.600,711077.100,711108.800,710858.200,446226.600,325461.400,711780.700,0.000
307802.300,291425.900,711086.800,711118.800,710867.700,446097.000,325675.500,711790.000,0.000
307387.900,291020.900,711063.600,711094.600,710845.100,445518.200,325239.300,711766.800,0.000
307174.600,290814.700,711053.600,711083.600,710835.100,445027.600,324919.100,711757.100,0.000
307499.600,291132.500,711073.900,711104.600,710855.300,444936.300,325180.000,711777.300,0.000
307762.200,291387.200,711084.700,711115.900,710865.900,444857.300,325469.500,711788.300,0.000
307412.000,291043.500,711061.600,711092.200,710843.300,444335.200,325117.200,711765.400,0.000
307116.700,290758.100,711050.300,711079.900,710832.600,443798.200,324718.300,711754.300,0.000
307380.800,291015.500,711070.100,711099.900,710852.300,443664.600,324902.600,711774.400,0.000
307722.800,291348.600,711089.700,711119.400,710871.100,443645.100,325263.500,711793.200,0.000
307468.000,291097.800,711072.600,711102.400,710854.800,443207.900,325025.000,711776.900,0.000
307086.300,290729.400,711052.000,711081.300,710834.900,442623.900,324556.400,711756.800,0.000
307260.900,290902.700,711069.600,711098.300,710852.000,442428.500,324643.700,711773.800,0.000
307656.200,291289.400,711093.800,711123.000,710876.200,442439.900,325043.700,711797.400,0.000
307505.400,291142.800,711080.600,711109.400,710863.200,442085.100,324925.900,711784.600,0.000
307070.100,290720.400,711058.900,711086.900,710841.500,441471.600,324418.500,711763.400,0.000
307148.800,290798.700,711068.600,711096.600,710851.800,441195.600,324389.000,711773.400,0.000
307547.800,291189.300,711089.300,711117.800,710872.300,441198.300,324771.200,711793.700,0.000
307532.700,291176.500,711088.300,711116.900,710871.200,440953.500,324797.100,711792.700,0.000
307074.800,290730.600,711063.200,711090.200,710846.700,440339.300,324287.600,711768.200,0.000
307039.200,290696.800,711064.600,711091.600,710848.600,439986.200,324142.700,711769.900,0.000
307446.800,291095.200,711090.800,711118.400,710874.200,439995.600,324519.300,711795.400,0.000
307540.700,291182.800,711091.900,711119.900,710875.400,439827.700,324653.700,711796.700,0.000
307095.400,290745.500,711065.500,711092.700,710849.700,439232.400,324171.700,711771.100,0.000
306971.500,290628.400,711066.100,711092.600,710850.600,438825.000,323936.800,711771.700,0.000
307343.900,290992.700,711092.300,711119.100,710876.600,438802.100,324265.300,711797.600,0.000
307539.700,291181.400,711099.400,711126.300,710883.800,438708.800,324504.400,711804.800,0.000
307127.600,290780.000,711072.100,711098.300,710856.900,438157.800,324081.300,711777.800,0.000
306887.600,290551.800,711062.900,711088.500,710848.000,437675.000,323734.900,711769.100,0.000
307208.300,290864.300,711085.000,711111.200,710870.400,437602.600,323984.900,711791.200,0.000
307502.700,291150.200,711101.800,711128.400,710886.700,437577.400,324312.100,711807.300,0.000
307173.300,290828.400,711081.300,711107.300,710866.700,437099.400,323992.000,711787.400,0.000
306844.500,290509.600,711065.900,711090.800,710851.900,436558.900,323566.300,711772.200,0.000
307089.100,290746.100,711083.900,711108.900,710870.000,436427.900,323729.500,711790.300,0.000
307454.400,291101.000,711106.800,711132.300,710892.300,436451.900,324119.400,711812.700,0.000
307224.800,290874.900,711088.700,711113.800,710874.300,436049.100,323907.600,711794.800,0.000
306818.700,290480.300,711065.700,711089.900,710852.000,435463.500,323416.600,711772.200,0.000
306967.300,290625.900,711080.000,711103.900,710866.300,435263.400,323472.100,711786.600,0.000
307369.000,291015.300,711103.200,711127.600,710889.300,435299.900,323875.200,711809.100,0.000
307258.200,290903.600,711093.300,711118.100,710879.900,434998.600,323800.900,711799.800,0.000
306817.300,290471.500,711070.300,711093.800,710856.800,434408.800,323295.800,711777.100,0.000
306868.500,290523.000,711076.400,711099.600,710863.300,434140.100,323241.900,711783.300,0.000
307283.700,290927.400,711102.600,711126.500,710889.300,434181.600,323642.000,711809.100,0.000
307291.400,290931.300,711099.400,711123.300,710886.000,433974.700,323695.200,711805.900,0.000
306834.100,290482.100,711074.200,711096.800,710860.900,433382.700,323187.100,711781.100,0.000
306788.100,290439.100,711078.600,711101.000,710866.000,433048.900,323031.600,711785.900,0.000
307189.100,290830.900,711102.900,711126.500,710890.300,433066.900,323397.000,711810.000,0.000
307308.000,290945.000,711103.400,711127.100,710890.600,432933.400,323557.400,711810.400,0.000
306862.300,290510.900,711073.900,711096.100,710861.400,432360.200,323081.300,711781.100,0.000
306705.600,290364.200,711070.800,711092.300,710859.000,431952.000,322817.800,711778.200,0.000
307068.800,290721.200,711097.700,711120.000,710885.600,431940.700,323132.400,711805.100,0.000
307300.400,290949.300,711113.900,711136.500,710901.400,431894.600,323411.300,711820.800,0.000
306908.800,290569.900,711088.900,711110.500,710877.100,431382.700,323019.600,711796.000,0.000
306641.800,290311.400,711074.300,711095.200,710863.200,430897.900,322648.300,711782.100,0.000
306931.800,290591.400,711093.300,711114.600,710881.900,430821.500,322867.200,711801.300,0.000
307243.600,290892.100,711107.800,711129.600,710896.000,430815.300,323201.200,711815.400,0.000
306952.400,290602.900,711088.900,711109.700,710877.300,430378.500,322915.300,711796.600,0.000
306615.300,290275.100,711075.400,711095.800,710864.800,429857.900,322486.400,711783.600,0.000
306835.000,290489.000,711091.600,711112.400,710880.800,429726.600,322620.000,711799.900,0.000
307205.600,290850.200,711112.300,711133.100,710900.900,429766.600,323008.800,711819.800,0.000
307008.600,290658.900,711098.900,711119.300,710887.800,429421.300,322844.800,711806.400,0.000
306599.700,290265.000,711080.100,711099.700,710869.600,428866.300,322363.000,711788.300,0.000
306714.200,290380.200,711092.500,711112.300,710882.000,428662.100,322386.400,711800.800,0.000
307109.700,290766.300,711115.300,711135.400,710904.300,428710.900,322781.000,711823.200,0.000
307031.000,290686.300,711105.500,711126.100,710895.200,428453.100,322741.600,711813.900,0.000
306572.100,290239.400,711077.300,711096.600,710867.700,427863.500,322223.800,711786.100,0.000
306599.700,290268.600,711085.300,711104.300,710875.300,427597.600,322151.700,711794.100,0.000
307012.700,290668.700,711110.400,711130.000,710900.300,427648.200,322545.300,711819.400,0.000
307060.300,290711.400,711111.900,711131.400,710902.000,427486.000,322638.700,711820.800,0.000
306612.400,290273.900,711086.600,711104.600,710877.300,426925.500,322149.800,711795.700,0.000
306532.600,290201.000,711086.900,711104.800,710877.900,426585.100,321960.200,711796.400,0.000
306913.200,290575.600,711111.300,711129.600,710901.600,426603.300,322304.600,711820.200,0.000
307065.300,290724.500,711117.000,711135.400,710907.100,426513.900,322503.900,711825.300,0.000
306643.500,290314.500,711091.800,711109.800,710882.700,425987.800,322065.000,711801.100,0.000
306450.600,290130.200,711086.300,711103.400,710877.500,425576.100,321773.200,711795.700,0.000
306791.400,290461.600,711108.600,711126.100,710899.700,425557.500,322058.000,711817.400,0.000
307050.700,290714.800,711121.300,711139.900,710912.800,425543.600,322356.800,711830.700,0.000
306669.100,290342.600,711093.200,711110.700,710884.800,425051.300,321975.500,711802.800,0.000
306389.200,290073.800,711083.100,711099.500,710874.900,424583.900,321597.800,711792.900,0.000
306673.800,290350.400,711105.100,711122.100,710896.900,424522.800,321809.200,711815.000,0.000
307003.600,290672.300,711121.100,711138.400,710912.800,424549.400,322166.300,711830.600,0.000
306723.900,290396.500,711101.800,711118.200,710893.900,424151.600,321909.800,711811.300,0.000
306361.700,290045.500,711084.100,711099.500,710876.500,423633.900,321459.800,711794.600,0.000
306565.500,290246.900,711101.600,711117.800,710894.100,423509.700,321576.500,711812.100,0.000
306945.200,290614.500,711123.600,711140.000,710915.900,423570.600,321971.600,711833.700,0.000
306776.900,290448.200,711110.100,711126.400,710903.000,423261.300,321838.000,711820.400,0.000
306354.400,290037.400,711088.600,711103.900,710881.900,422713.100,321345.300,711799.300,0.000
306450.300,290132.700,711098.400,711113.300,710891.600,422508.300,321342.400,711809.100,0.000
306860.500,290534.200,711121.600,711136.800,710914.200,422581.200,321748.400,711831.700,0.000
306823.400,290495.300,711116.700,711132.300,710909.500,422374.600,321756.600,711826.800,0.000
306368.100,290048.200,711089.400,711104.100,710883.300,421809.700,321245.200,711800.400,0.000
306362.200,290043.300,711092.000,711106.300,710885.600,421527.500,321131.900,711803.300,0.000
306770.100,290441.600,711118.200,711132.900,710911.200,421588.800,321517.800,711828.700,0.000
306846.200,290513.100,711121.300,711135.900,710914.500,421465.900,321642.300,711831.600,0.000
306388.300,290070.100,711094.500,711108.100,710888.300,420922.200,321158.200,711805.600,0.000
306281.700,289972.900,711094.300,711107.300,710888.600,420580.700,320948.500,711805.600,0.000
306658.500,290340.900,711117.400,711130.900,710911.200,420609.700,321285.300,711828.200,0.000
306834.400,290512.500,711123.800,711137.800,710917.200,420554.600,321513.100,711834.500,0.000
306420.100,290107.500,711099.400,711112.400,710893.500,420052.800,321093.900,711810.300,0.000
306205.700,289899.500,711092.500,711104.600,710886.700,419637.600,320781.500,711803.600,0.000
306546.500,290232.800,711115.000,711127.400,710908.800,419638.100,321062.600,711825.900,0.000
306820.900,290501.700,711126.000,711139.000,710919.600,419645.100,321370.300,711836.100,0.000
306469.700,290159.200,711101.500,711114.000,710896.000,419199.000,321028.400,711812.400,0.000
306159.300,289857.300,711088.300,711099.700,710883.600,418724.600,320627.400,711799.900,0.000
306420.900,290112.100,711106.300,711117.900,710901.200,418656.600,320810.800,711817.800,0.000
306770.400,290453.900,711124.000,711136.300,710918.200,418714.700,321185.500,711834.800,0.000
306528.700,290215.800,711111.100,711123.200,710906.000,418368.400,320979.500,711822.600,0.000
306148.100,289845.900,711092.300,711103.000,710887.700,417856.100,320520.900,711803.900,0.000
306320.300,290014.300,711107.000,711117.600,710902.200,417722.800,320605.900,711818.300,0.000
306707.800,290394.200,711130.800,711142.100,710925.700,417805.900,321012.700,711842.400,0.000
306571.400,290262.500,711120.400,711131.600,710915.900,417543.800,320924.200,711832.300,0.000
306141.100,289843.900,711097.400,711107.100,710893.300,417008.800,320428.500,711809.600,0.000
306207.700,289911.400,711104.800,711114.700,710900.800,416799.100,320399.700,711817.300,0.000
306614.900,290309.400,711131.100,711142.100,710927.100,416883.100,320802.900,711843.300,0.000
306595.700,290286.900,711126.900,711137.100,710922.900,416700.400,320828.400,711838.800,0.000
306129.200,289831.700,711096.600,711105.300,710892.600,416144.000,320313.600,711808.400,0.000
306106.800,289813.000,711100.900,711109.500,710897.100,415872.500,320188.700,711813.300,0.000
306521.700,290218.800,711130.400,711140.100,710926.700,415955.500,320580.700,711842.800,0.000
306627.100,290320.400,711134.800,711144.600,710930.600,415868.400,320739.000,711846.300,0.000
306173.800,289876.300,711105.100,711113.600,710901.600,415335.900,320258.200,711816.900,0.000
306037.800,289747.600,711101.900,711109.800,710899.100,414990.800,320020.200,711814.500,0.000
306414.200,290117.000,711130.700,711139.600,710927.700,415042.900,320358.300,711843.000,0.000
306625.600,290321.100,711140.800,711150.000,710937.800,415030.200,320616.400,711853.300,0.000
306234.100,289937.100,711115.500,711123.800,710912.800,414563.000,320218.300,711828.400,0.000
305993.300,289705.800,711108.600,711115.700,710905.900,414151.000,319881.600,711821.300,0.000
306297.800,290006.200,711127.300,711134.900,710924.600,414136.000,320125.800,711839.900,0.000
306591.200,290289.600,711140.800,711149.100,710937.900,414172.600,320457.500,711853.100,0.000
306271.900,289975.400,711118.400,711125.800,710916.300,413765.100,320152.600,711831.100,0.000
305944.300,289659.000,711104.300,711110.900,710902.800,413297.400,319737.300,711817.600,0.000
306177.300,289885.700,711121.800,711128.500,710919.900,413228.000,319899.300,711834.500,0.000
306542.400,290243.100,711143.700,711150.800,710940.900,413315.000,320290.100,711856.000,0.000
306326.800,290028.800,711128.300,711135.000,710925.500,412995.300,320101.800,711841.300,0.000
305931.800,289646.100,711108.900,711114.400,710906.900,412490.800,319629.400,711822.100,0.000
306086.100,289801.100,711125.500,711131.000,710923.800,412363.400,319693.800,711838.600,0.000
306479.500,290187.000,711147.900,711154.100,710945.800,412458.200,320096.100,711860.900,0.000
306365.000,290073.400,711137.300,711143.300,710935.200,412220.300,320026.400,711850.100,0.000
305920.700,289641.900,711113.600,711119.000,710912.600,411698.600,319530.400,711826.900,0.000
305973.800,289700.400,711122.700,711127.600,710921.600,411495.700,319485.700,711835.900,0.000
306383.500,290100.100,711146.900,711151.900,710945.200,411590.500,319884.300,711859.800,0.000
306395.800,290111.100,711142.100,711147.500,710940.400,411441.600,319943.900,711854.600,0.000
305947.800,289670.400,711114.500,711119.300,710913.900,410920.600,319453.800,711828.500,0.000
305892.400,289614.500,711118.600,711122.800,710918.100,410644.800,319298.300,711832.600,0.000
306286.900,289996.800,711144.400,711149.300,710943.600,410725.800,319666.700,711857.800,0.000
306417.800,290122.200,711150.000,711155.300,710949.300,410674.300,319853.100,711863.100,0.000
305979.400,289696.200,711122.100,711126.300,710922.100,410177.600,319398.800,711836.200,0.000
305810.300,289537.700,711118.000,711121.400,710918.400,409819.900,319131.500,711832.000,0.000
306168.900,289885.500,711143.700,711147.400,710943.700,409868.700,319449.300,711857.100,0.000
306398.100,290107.400,711152.600,711157.100,710952.300,409878.600,319727.100,711866.100,0.000
306023.200,289743.100,711129.800,711133.100,710930.100,409440.800,319357.700,711843.400,0.000
305765.100,289494.300,711124.000,711126.400,710924.600,409034.600,319012.600,711838.300,0.000
306059.200,289783.100,711144.400,711147.300,710944.800,409027.500,319247.200,711858.500,0.000
306367.800,290080.100,711157.100,711160.600,710957.300,409083.300,319590.500,711870.600,0.000
306064.600,289780.300,711133.100,711135.400,710933.600,408695.100,319299.500,711846.700,0.000
305712.300,289438.900,711115.000,711116.400,710916.300,408224.100,318862.000,711829.000,0.000
305933.700,289656.500,711132.900,711134.300,710933.800,408160.100,319004.000,711846.600,0.000
306314.000,290027.100,711153.800,711156.000,710954.100,408263.500,319403.600,711867.300,0.000
306131.800,289846.100,711141.700,711143.400,710942.100,407985.500,319257.500,711855.400,0.000
305724.900,289450.500,711121.400,711122.400,710922.700,407489.000,318783.200,711835.400,0.000
305851.900,289575.500,711134.400,711135.000,710935.800,407354.600,318822.000,711848.600,0.000
306258.000,289969.700,711158.400,711159.900,710959.500,407468.400,319231.800,711872.500,0.000
306194.700,289906.900,711149.900,711151.700,710951.400,407281.300,319212.100,711864.100,0.000
305743.700,289466.600,711123.800,711123.600,710925.500,406762.700,318707.600,711838.000,0.000
305757.200,289479.300,711128.900,711128.200,710930.700,406543.300,318625.500,711843.200,0.000
306167.900,289879.500,711152.500,711153.100,710954.600,406655.900,319025.400,711866.700,0.000
306213.400,289922.300,711149.800,711150.300,710951.600,406546.900,319121.600,711863.300,0.000
305758.800,289479.200,711123.900,711122.500,710925.900,406042.300,318639.100,711837.800,0.000
305676.600,289399.900,711128.300,711126.900,710930.400,405767.200,318460.400,711842.600,0.000
306066.400,289778.800,711153.300,711152.800,710955.400,405856.300,318819.300,711867.500,0.000
306220.900,289927.800,711157.200,711157.300,710959.300,405823.400,319025.600,711871.100,0.000
305788.300,289503.900,711128.900,711127.500,710931.100,405341.000,318584.300,711843.000,0.000
305605.400,289327.500,711122.400,711120.300,710925.500,404989.600,318300.600,711837.200,0.000
305961.300,289673.300,711149.300,711147.900,710951.700,405045.600,318606.800,711863.600,0.000
306229.900,289934.900,711166.300,711164.900,710968.300,405098.400,318922.300,711879.500,0.000
305857.600,289570.100,711139.800,711137.500,710942.400,404675.800,318561.600,711854.000,0.000
305563.700,289289.200,711124.900,711121.900,710928.000,404252.300,318178.100,711839.700,0.000
305843.900,289565.400,711147.000,711144.300,710950.100,404247.300,318394.700,711861.700,0.000
306185.000,289898.500,711163.900,711162.200,710966.600,404345.200,318767.400,711878.800,0.000
305918.000,289640.300,711145.900,711143.500,710948.900,404012.400,318526.200,711860.600,0.000
305549.500,289283.100,711129.100,711125.100,710932.100,403550.600,318081.300,711843.800,0.000
305745.000,289470.400,711145.400,711141.800,710948.500,403479.200,318196.100,711860.300,0.000
306133.500,289845.200,711168.400,711165.800,710971.800,403605.400,318606.100,711883.200,0.000
305962.100,289672.300,711149.100,711145.600,710952.300,403343.600,318473.800,711863.400,0.000
305537.600,289257.100,711127.900,711122.800,710931.600,402848.300,317985.100,711842.400,0.000
305643.500,289360.200,711140.000,711135.200,710944.000,402705.200,317992.800,711854.200,0.000
306046.100,289750.300,711162.200,711158.500,710966.000,402819.500,318394.000,711876.300,0.000
306008.900,289712.700,711157.000,711153.100,710961.000,402667.000,318410.900,711871.400,0.000
305550.900,289270.600,711130.300,711125.100,710934.800,402161.900,317911.800,711845.200,0.000
305535.800,289265.100,711132.800,711127.400,710937.300,401933.500,317800.500,711847.600,0.000
305939.900,289658.100,711157.100,711152.600,710961.100,402041.100,318186.400,711871.400,0.000
306019.300,289734.100,711156.400,711152.100,710960.400,401964.400,318314.300,711870.800,0.000
305582.000,289306.800,711134.600,711129.000,710939.600,401489.600,317850.400,711849.800,0.000
305466.500,289199.500,711135.100,711128.200,710940.200,401197.700,317640.200,711850.400,0.000
305843.500,289566.500,711160.800,711154.900,710965.400,401282.900,317984.300,711875.800,0.000
306032.600,289748.000,711169.300,711163.600,710973.900,401288.800,318223.900,711883.700,0.000
305622.600,289347.600,711140.600,711133.600,710945.900,400836.800,317804.100,711855.200,0.000
305403.600,289134.600,711133.400,711125.900,710939.200,400473.400,317492.100,711848.400,0.000
305731.600,289454.000,711155.900,711149.100,710961.600,400512.700,317768.400,711870.600,0.000
306020.900,289736.900,711169.600,711163.300,710974.700,400586.300,318100.200,711883.900,0.000
305680.000,289402.300,711147.000,711139.600,710952.300,400203.800,317780.400,711861.300,0.000
305363.800,289097.500,711134.800,711126.400,710940.900,399785.500,317384.800,711849.600,0.000
305622.000,289351.200,711154.300,711146.400,710960.600,399771.400,317570.800,711869.000,0.000
305981.600,289700.800,711174.300,711166.900,710979.600,399889.700,317959.700,711888.600,0.000
305736.500,289460.200,711154.100,711146.000,710959.500,399582.600,317747.800,711868.600,0.000
305349.500,289084.300,711136.800,711127.100,710942.700,399116.300,317287.800,711851.800,0.000
305521.900,289251.800,711153.800,711144.400,710959.900,399041.000,317381.900,711868.700,0.000
305915.300,289634.600,711174.300,711166.100,710979.800,399165.900,317784.300,711888.600,0.000
305787.100,289504.500,711159.600,711151.100,710965.100,398940.600,317692.800,711874.400,0.000
305358.100,289085.300,711136.300,711126.600,710942.400,398457.600,317206.800,711851.500,0.000
305432.000,289155.400,711145.200,711135.200,710951.700,398308.700,317189.700,711860.200,0.000
305846.300,289554.600,711168.900,711159.900,710975.100,398446.200,317600.100,711883.700,0.000
305841.100,289547.700,711165.100,711156.000,710971.400,398325.800,317646.800,711879.700,0.000
305382.200,289102.300,711140.100,711129.600,710947.300,397834.800,317152.200,711855.200,0.000
305344.800,289069.900,711145.100,711134.000,710952.300,397610.700,317024.100,711860.200,0.000
305746.200,289460.500,711170.900,711160.100,710977.600,397733.200,317408.000,711885.800,0.000
305849.600,289557.000,711171.500,711161.100,710978.400,397685.700,317563.800,711886.300,0.000
305405.100,289122.900,711143.900,711132.700,710951.400,397216.200,317105.800,711859.200,0.000
305257.100,288983.100,711141.700,711129.100,710949.100,396910.400,316864.000,711856.900,0.000
305620.600,289339.200,711166.500,711154.900,710973.800,396997.200,317191.800,711881.400,0.000
305841.000,289556.800,711176.100,711165.300,710983.300,397040.000,317462.800,711890.900,0.000
305454.000,289181.000,711155.000,711142.400,710962.600,396629.900,317082.400,711870.100,0.000
305199.800,288938.000,711144.800,711131.600,710953.100,396255.700,316739.100,711860.200,0.000
305506.000,289239.000,711165.900,711153.700,710974.100,396292.100,316990.400,711881.000,0.000
305806.400,289534.100,711181.100,711169.800,710989.200,396389.500,317339.300,711896.100,0.000
305491.200,289229.100,711161.400,711148.900,710969.800,396044.600,317053.200,711876.400,0.000
305149.300,288897.100,711144.600,711130.100,710952.900,395613.000,316629.800,711859.400,0.000
305383.900,289127.400,711160.100,711146.000,710968.500,395587.100,316787.000,711874.800,0.000
305745.700,289479.300,711178.300,711165.300,710986.100,395710.200,317175.100,711892.400,0.000
305528.100,289264.000,711159.300,711145.400,710967.400,395431.300,316995.000,711872.600,0.000
305123.800,288877.100,711138.400,711123.200,710947.300,394968.600,316526.600,711851.100,0.000
305271.400,289024.600,711153.100,711137.800,710961.900,394879.700,316587.700,711865.300,0.000
305682.000,289421.900,711178.200,711164.500,710987.200,395038.800,317010.400,711889.800,0.000
305598.100,289337.500,711170.800,711156.600,710979.700,394874.600,316972.200,711882.200,0.000
305148.600,288900.300,711147.100,711130.800,710956.200,394394.300,316475.400,711857.400,0.000
305187.100,288940.100,711155.600,711139.500,710964.700,394230.800,316425.900,711865.000,0.000
305593.300,289335.900,711179.300,711164.300,710988.200,394372.400,316827.800,711888.000,0.000
305617.600,289357.200,711178.000,711163.200,710986.900,394288.100,316911.500,711885.800,0.000
305174.700,288927.500,711155.200,711138.900,710964.900,393828.600,316440.600,711862.800,0.000
305111.700,288870.800,711159.300,711142.600,710969.400,393598.200,316286.400,711866.500,0.000
305500.300,289249.100,711184.400,711168.400,710994.200,393718.900,316654.500,711891.100,0.000
305641.700,289383.800,711189.400,711174.300,710999.400,393719.400,316857.600,711895.700,0.000
305207.000,288956.300,711161.800,711144.800,710972.400,393271.300,316412.800,711867.400,0.000
305024.300,288778.800,711154.800,711136.700,710965.200,392949.100,316134.900,711859.400,0.000
305372.500,289118.300,711175.900,711158.900,710986.100,393022.900,316436.800,711879.700,0.000
305620.700,289361.600,711188.600,711171.800,710998.200,393091.900,316735.900,711891.300,0.000
305243.600,288992.300,711165.100,711147.300,710975.400,392698.600,316369.000,711867.300,0.000
304954.800,288714.700,711147.100,711128.300,710958.100,392300.800,315987.300,711848.800,0.000
305246.400,289001.400,711167.200,711149.100,710978.200,392331.300,316219.400,711868.300,0.000
305579.900,289327.800,711186.600,711169.400,710997.300,392459.500,316597.500,711887.000,0.000
305299.400,289053.800,711170.100,711152.000,710981.300,392150.900,316349.500,711870.100,0.000
304945.900,288712.300,711153.800,711134.300,710965.600,391728.100,315922.000,711853.000,0.000
305155.100,288916.300,711171.600,711151.900,710982.600,391700.300,316062.900,711869.500,0.000
305526.800,289275.300,711190.900,711172.100,711001.700,391839.300,316459.300,711887.700,0.000
305349.600,289099.000,711176.700,711157.400,710987.500,391602.000,316318.200,711872.900,0.000
304936.000,288697.600,711154.100,711133.700,710965.900,391144.400,315841.600,711849.800,0.000
305057.600,288819.800,711168.700,711148.100,710980.700,391053.000,315881.400,711863.400,0.000
305452.300,289202.600,711190.100,711170.300,711001.500,391198.400,316286.500,711883.500,0.000
305383.100,289133.900,711179.100,711159.300,710990.800,391044.300,316269.100,711872.100,0.000
304936.600,288702.100,711151.400,711130.100,710963.400,390566.400,315770.500,711843.600,0.000
304957.000,288724.800,711160.100,711138.200,710972.600,390396.800,315697.600,711851.400,0.000
305366.700,289123.100,711185.900,711165.100,710997.800,390546.700,316095.800,711876.600,0.000
305428.000,289183.300,711186.900,711165.900,710998.600,390498.100,316217.900,711876.300,0.000
304980.300,288746.900,711161.300,711139.000,710973.800,390044.800,315747.400,711849.900,0.000
304887.800,288658.400,711161.400,711138.800,710974.300,389796.300,315557.800,711849.400,0.000
305267.100,289029.300,711184.800,711163.400,710997.300,389914.500,315909.800,711872.200,0.000
305440.400,289197.800,711190.800,711169.700,711002.900,389935.800,316133.300,711877.300,0.000
305026.900,288795.000,711165.800,711142.600,710978.400,389516.500,315715.100,711851.300,0.000
304825.900,288602.900,711158.700,711134.600,710971.800,389196.900,315423.400,711843.400,0.000
305164.300,288933.300,711182.500,711159.100,710995.100,389275.500,315712.700,711866.200,0.000
305430.300,289190.300,711194.200,711171.600,711006.300,389357.500,316024.500,711876.800,0.000
305074.000,288839.300,711169.100,711145.200,710981.800,388982.000,315680.400,711851.100,0.000
304771.300,288544.400,711152.000,711126.900,710965.500,388587.300,315288.400,711833.300,0.000
305044.800,288810.400,711171.600,711147.200,710985.600,388609.800,315495.900,711852.300,0.000
305394.200,289152.100,711191.500,711168.200,711004.900,388753.300,315884.300,711870.900,0.000
305136.100,288900.400,711175.900,711151.600,710989.300,388473.700,315668.300,711854.200,0.000
304770.900,288543.800,711162.600,711136.300,710976.100,388056.600,315235.900,711839.500,0.000
304962.400,288727.900,711179.400,711153.800,710993.100,388017.400,315347.200,711855.600,0.000
305340.700,289091.900,711197.600,711173.400,711010.800,388164.200,315743.000,711873.100,0.000
305188.100,288941.800,711182.400,711157.500,710996.300,387954.300,315632.700,711857.100,0.000
304761.200,288527.000,711154.700,711128.300,710969.500,387490.600,315142.000,711828.500,0.000
304855.400,288620.800,711164.900,711138.200,710979.600,387379.600,315147.200,711837.800,0.000
305273.700,289028.000,711192.900,711167.400,711007.100,387556.400,315573.100,711864.600,0.000
305247.200,289000.100,711188.600,711162.900,711002.900,387451.700,315602.000,711859.400,0.000
304796.300,288561.800,711162.900,711135.100,710977.800,386993.000,315111.500,711832.800,0.000
304780.000,288547.900,711167.600,711139.800,710983.000,386808.800,315006.600,711837.000,0.000
305179.400,288936.900,711189.900,711163.000,711004.400,386955.200,315392.100,711857.800,0.000
305267.500,289022.000,711192.400,711166.000,711006.800,386931.600,315538.800,711859.200,0.000
304828.100,288593.300,711168.400,711140.200,710983.400,386496.500,315084.400,711834.100,0.000
304708.900,288479.800,711167.800,711138.400,710983.000,386240.100,314871.600,711832.400,0.000
305093.000,288851.400,711193.200,711164.900,711008.400,386366.700,315217.800,711856.900,0.000
305282.900,289032.300,711197.800,711170.700,711013.100,386405.400,315460.100,711860.700,0.000
304882.200,288641.100,711172.200,711143.400,710988.100,386007.400,315063.600,711834.100,0.000
304658.000,288428.700,711164.900,711134.400,710980.900,385683.500,314750.900,711825.500,0.000
304978.800,288742.800,711186.800,711157.200,711002.400,385757.000,315024.000,711846.500,0.000
305259.900,289018.200,711200.900,711172.200,711016.000,385861.800,315355.900,711859.400,0.000
304931.800,288698.500,711178.000,711148.100,710993.600,385524.500,315050.300,711834.900,0.000
304616.300,288392.700,711161.400,711130.100,710978.000,385134.300,314651.900,711817.600,0.000
304866.500,288638.600,711182.500,711151.700,710998.800,385151.800,314837.400,711837.800,0.000
305224.300,288986.400,711203.600,711174.200,711019.600,385306.200,315230.600,711857.900,0.000
304997.500,288763.800,711188.800,711158.400,711005.400,385054.700,315041.300,711842.600,0.000
304611.300,288387.200,711169.500,711137.400,710986.900,384627.800,314584.400,711822.100,0.000
304770.200,288538.500,711181.800,711149.500,710998.400,384571.000,314660.200,711832.800,0.000
305172.300,288931.300,711203.800,711172.600,711019.700,384743.500,315076.000,711853.600,0.000
305056.100,288815.300,711193.100,711161.600,711009.400,384574.200,315006.900,711841.800,0.000
304619.400,288390.800,711170.300,711136.300,710987.100,384122.300,314519.600,711817.000,0.000
304682.500,288452.300,711181.700,711147.500,710998.600,384001.800,314499.000,711827.800,0.000
305092.000,288849.600,711207.500,711175.100,711023.900,384173.700,314908.900,711852.700,0.000
305084.300,288838.900,711199.600,711166.900,711016.100,384080.300,314955.800,711843.600,0.000
304628.600,288394.400,711171.600,711137.400,710989.200,383619.000,314464.200,711814.300,0.000
304589.300,288360.700,711177.100,711141.800,710994.600,383425.700,314334.400,711818.100,0.000
304992.200,288749.700,711202.700,711168.900,711019.400,383580.900,314720.700,711842.800,0.000
305102.900,288855.900,711203.600,711170.100,711020.100,383575.100,314888.400,711842.800,0.000
304664.900,288428.000,711175.100,711139.900,710992.900,383142.700,314433.900,711813.500,0.000
304521.800,288291.700,711171.200,711134.900,710989.300,382873.200,314194.900,711807.900,0.000
304885.700,288647.000,711195.500,711160.400,711013.400,382992.100,314522.500,711830.900,0.000
305114.400,288866.900,711206.300,711172.300,711023.300,383070.400,314803.400,711840.100,0.000
304731.000,288487.600,711181.300,711145.000,710999.100,382687.500,314422.600,711813.600,0.000
304486.700,288250.000,711171.200,711133.700,710989.900,382352.000,314089.700,711802.600,0.000
304803.300,288557.800,711196.500,711159.600,711014.700,382432.100,314356.400,711826.600,0.000
305099.100,288846.500,711211.600,711175.700,711029.500,382554.500,314700.800,711840.100,0.000
304791.900,288547.200,711188.900,711152.000,711007.300,382239.500,314414.100,711815.800,0.000
304463.000,288230.400,711174.300,711135.200,710992.800,381853.900,314004.100,711799.400,0.000
304692.800,288457.500,711192.700,711153.900,711011.400,381865.200,314170.900,711816.900,0.000
305060.900,288814.300,711214.600,711177.300,711032.700,382032.800,314575.300,711837.600,0.000
304851.400,288607.200,711198.100,711159.800,711016.100,381801.700,314409.700,711819.400,0.000
304450.500,288216.500,711177.000,711136.300,710995.700,381374.600,313943.300,711796.300,0.000
304588.900,288352.800,711189.900,711149.200,711008.900,381315.400,314001.300,711807.800,0.000
304994.800,288747.000,711214.800,711176.500,711033.700,381499.100,314424.100,711831.900,0.000
304909.100,288659.000,711206.400,711167.600,711025.200,381359.800,314390.300,711821.800,0.000
304464.000,288223.400,711179.700,711138.100,710998.800,380905.400,313890.100,711792.900,0.000
304500.800,288259.700,711186.800,711144.800,711006.600,380769.500,313835.100,711798.500,0.000
304911.900,288657.900,711211.400,711171.600,711031.300,380948.200,314245.000,711822.100,0.000
304948.000,288691.700,711210.800,711170.900,711030.200,380900.400,314338.300,711819.300,0.000
304497.700,288257.100,711185.700,711143.300,711005.400,380461.900,313862.800,711792.300,0.000
304423.000,288192.100,711186.700,711142.800,711006.600,380248.200,313699.500,711791.000,0.000
304814.700,288571.100,711211.400,711169.700,711031.200,380397.800,314068.500,711814.400,0.000
304965.800,288709.800,711217.000,711175.600,711036.200,380431.400,314277.100,711818.400,0.000
304542.200,288294.800,711192.500,711148.900,711012.800,380031.200,313853.000,711791.400,0.000
304363.900,288125.100,711185.500,711141.000,711006.400,379748.300,313586.100,711781.900,0.000
304716.500,288472.600,711209.600,711166.000,711029.900,379862.800,313901.200,711803.900,0.000
304957.500,288708.700,711218.500,711176.100,711038.200,379954.000,314195.100,711811.000,0.000
304590.700,288351.400,711194.400,711149.900,711014.800,379599.200,313844.000,711783.200,0.000
304316.700,288087.100,711182.200,711135.600,711003.300,379257.300,313489.000,711766.300,0.000
304609.700,288372.200,711205.600,711160.200,711026.300,379325.800,313726.300,711786.900,0.000
304931.300,288686.100,711223.300,711179.900,711043.600,379473.200,314093.300,711802.400,0.000
304648.400,288410.600,711202.900,711157.500,711023.600,379192.800,313845.900,711774.500,0.000
304292.800,288065.800,711186.100,711137.700,711007.500,378801.800,313417.800,711741.000,0.000
304503.600,288272.900,711204.900,711157.300,711026.600,378806.100,313558.300,711736.400,0.000
304881.900,288641.300,711224.100,711178.600,711045.300,378981.400,313962.000,711684.900,0.000
304697.500,288459.700,711203.700,711157.100,711025.200,378769.400,313818.300,711209.400,0.000
304282.000,288055.700,711182.100,711131.900,711004.300,378339.300,313339.100,710411.200,0.000
304408.100,288178.700,711197.900,711147.900,711020.300,378281.900,313381.500,709945.100,0.000
304819.200,288577.300,711221.300,711173.800,711043.300,378478.300,313807.400,709770.300,0.000
304772.900,288527.600,711215.400,711167.900,711037.800,378379.300,313814.800,709265.500,0.000
304317.300,288081.600,711186.900,711135.600,711009.800,377933.900,313316.900,708306.900,0.000
304320.100,288084.900,711190.000,711137.800,711013.100,377776.900,313228.300,707659.500,0.000
304730.600,288486.300,711216.600,711166.900,711039.400,377956.800,313632.600,707443.100,0.000
304794.100,288546.200,711216.200,711167.000,711038.600,377935.200,313755.100,707008.000,0.000
304335.300,288100.200,711185.200,711132.100,711008.600,377498.400,313277.300,706067.900,0.000
304241.000,288012.300,711187.200,711132.300,711011.000,377284.800,313098.800,705379.900,0.000
304619.500,288378.900,711210.200,711158.300,711033.600,377427.900,313451.000,705133.000,0.000
304793.000,288547.800,711216.100,711165.100,711039.100,377482.800,313681.500,704806.900,0.000
304388.900,288155.600,711191.900,711136.800,711015.400,377104.200,313277.300,703985.100,0.000
304189.700,287964.100,711186.400,711128.200,711010.600,376818.600,312990.900,703250.800,0.000
304531.300,288298.000,711212.100,711156.300,711035.700,376933.800,313289.900,702980.400,0.000
304805.900,288564.500,711226.900,711173.600,711050.100,377065.700,313620.600,702748.300,0.000
304445.900,288209.000,711198.200,711141.100,711021.400,376719.900,313273.100,701992.700,0.000
304137.000,287910.000,711176.900,711115.600,711000.500,376342.500,312870.400,701184.200,0.000
304415.600,288182.200,711197.900,711138.800,711021.800,376404.300,313086.600,700860.600,0.000
304768.100,288522.900,711219.400,711163.600,711042.800,376584.300,313480.600,700681.000,0.000
304513.700,288272.700,711206.300,711147.900,711030.100,376341.800,313270.500,700051.100,0.000
304138.200,287908.400,711189.100,711125.000,711013.900,375944.100,312829.700,699233.300,0.000
304330.600,288098.500,711205.200,711142.300,711029.900,375934.500,312945.400,698833.500,0.000
304719.200,288478.900,711227.000,711168.300,711050.700,376122.800,313358.900,698668.000,0.000
304566.800,288328.400,711212.700,711152.000,711036.500,375945.100,313254.500,698118.900,0.000
304133.900,287906.900,711187.300,711118.900,711011.800,375508.500,312763.600,697269.900,0.000
304227.000,288003.900,711197.800,711129.200,711022.200,375431.300,312774.700,696796.300,0.000
304634.300,288401.700,711221.400,711158.800,711045.600,375630.600,313197.700,696640.800,0.000
304610.300,288375.600,711217.300,711153.900,711041.600,375557.300,313235.200,696203.300,0.000
304163.300,287938.400,711192.300,711118.600,711017.300,375125.300,312748.000,695364.600,0.000
304143.800,287920.500,711195.700,711118.200,711021.200,374965.800,312640.500,694802.900,0.000
304545.300,288309.400,711221.300,711152.200,711046.100,375146.600,313033.300,694623.900,0.000
304634.500,288394.800,711221.400,711154.900,711046.500,375153.700,313187.100,694273.400,0.000
304203.200,287974.000,711194.600,711111.800,711020.100,374746.100,312738.500,693469.700,0.000
304081.000,287858.200,711192.900,711096.800,711018.800,374516.100,312526.200,692836.400,0.000
304452.200,288218.100,711216.700,711137.800,711042.600,374660.200,312864.900,692618.300,0.000
304654.800,288413.900,711226.400,711155.000,711052.200,374741.900,313123.700,692350.300,0.000
304258.300,288027.600,711200.800,711085.400,711027.400,374375.100,312734.700,691594.800,0.000
304030.000,287807.700,711189.200,710961.300,711018.100,374073.700,312422.800,690886.600,0.000
304343.900,288113.000,711213.400,711072.100,711040.500,374168.700,312690.000,690615.200,0.000
304630.400,288392.800,711230.800,711149.100,711056.500,374308.200,313028.800,690408.900,0.000
304306.700,288079.500,711207.500,711023.500,711036.200,374008.300,312731.800,689729.200,0.000
303978.800,287764.000,711178.900,710687.100,711018.100,373638.400,312324.200,688953.500,0.000
304223.200,288002.200,711197.900,710824.300,711033.000,373668.500,312498.700,688609.700,0.000
304581.300,288351.300,711225.800,711099.100,711052.400,373847.400,312895.200,688443.500,0.000
304343.400,288119.300,711201.100,710916.700,711032.400,373608.400,312698.100,687836.400,0.000
303959.800,287748.900,711171.200,710409.200,711013.400,373209.400,312246.400,687031.900,0.000
304129.600,287916.000,711185.900,710457.900,711028.600,373193.800,312338.700,686638.800,0.000
304521.900,288299.200,711217.400,710904.300,711050.800,373388.900,312754.800,686429.400,0.000
304400.300,288179.200,711207.300,710799.000,711041.600,373241.000,312680.300,685729.800,0.000
303962.400,287754.000,711174.800,710166.300,711018.100,372814.800,312182.200,685082.100,0.000
304024.700,287815.800,711183.200,710085.300,711027.200,372718.300,312147.300,684884.400,0.000
304418.500,288196.600,711205.300,710533.300,711046.400,372894.300,312526.900,684998.800,0.000
304407.300,288182.700,711195.300,710563.600,711035.800,372814.300,312551.000,684847.300,0.000
303961.000,287748.200,711165.600,709923.400,711009.800,372385.300,312056.000,684303.100,0.000
303911.800,287706.100,711167.000,709692.900,711012.100,372202.600,311906.300,684008.600,0.000
304311.900,288092.500,711192.600,710129.400,711036.600,372376.600,312274.800,684110.300,0.000
304431.300,288203.100,711195.800,710317.000,711039.300,372402.300,312441.600,684067.800,0.000
303992.400,287774.600,711165.700,709699.100,711010.300,371991.600,311975.900,683544.800,0.000
303843.500,287634.300,711160.800,709329.400,711006.300,371746.500,311723.500,683174.600,0.000
304208.900,287991.100,711187.600,709714.700,711032.200,371891.100,312043.000,683238.100,0.000
304437.300,288213.400,711199.600,710035.400,711043.600,371995.300,312319.300,683276.600,0.000
304067.500,287853.600,711176.600,709511.800,711021.800,371650.300,311945.400,682825.700,0.000
303820.800,287618.300,711165.900,709003.300,711011.600,371337.500,311600.600,682383.300,0.000
304118.000,287908.200,711185.700,709292.600,711030.900,371423.800,311837.600,682378.300,0.000
304412.300,288192.200,711196.900,709699.600,711041.900,371560.000,312167.300,682447.600,0.000
304115.300,287903.100,711176.100,709288.200,711021.400,371276.900,311887.800,682063.900,0.000
303784.500,287584.900,711161.800,708672.300,711008.100,370917.500,311472.900,681571.900,0.000
304012.500,287807.000,711180.900,708851.400,711027.400,370953.300,311628.800,681505.300,0.000
304375.700,288155.900,711201.000,709346.400,711047.100,371136.500,312017.200,681618.200,0.000
304188.300,287972.200,711186.600,709085.500,711032.900,370940.000,311858.600,681326.800,0.000
303802.500,287600.300,711170.300,708390.100,711017.900,370556.400,311407.000,680808.400,0.000
303937.800,287735.300,711182.800,708422.900,711030.400,370519.600,311459.300,680660.600,0.000
304333.100,288120.800,711207.600,708959.600,711054.100,370719.600,311866.300,680785.400,0.000
304245.200,288031.600,711195.800,708851.300,711042.400,370603.400,311823.000,680576.800,0.000
303798.400,287596.300,711165.900,708077.600,711013.900,370174.400,311319.100,680012.300,0.000
303830.300,287628.300,711169.100,707938.600,711017.300,370049.700,311249.700,679764.300,0.000
304245.600,288031.100,711200.200,708488.600,711047.600,370255.200,311658.300,679890.400,0.000
304281.100,288065.500,711199.600,708567.300,711046.500,370233.300,311750.300,679784.400,0.000
303837.600,287634.000,711170.800,707818.400,711019.400,369822.500,311274.300,679247.200,0.000
303765.800,287564.800,711171.800,707525.800,711020.800,369633.100,311106.000,678929.200,0.000
304145.500,287930.300,711194.400,708015.900,711042.400,369792.600,311457.600,679002.800,0.000
304293.100,288073.000,711197.500,708261.600,711045.500,369842.500,311654.900,678969.900,0.000
303876.700,287667.900,711169.900,707574.800,711019.100,369461.800,311223.100,678462.000,0.000
303705.600,287503.000,711164.500,707132.400,711014.700,369207.600,310955.800,678066.900,0.000
304048.400,287834.600,711186.100,707549.100,711035.100,369338.000,311252.100,678098.500,0.000
304306.100,288084.600,711201.500,707954.900,711049.500,369475.700,311560.200,678151.400,0.000
303941.300,287725.800,711175.300,707369.200,711024.100,369141.500,311198.100,677692.100,0.000
303675.200,287467.100,711161.400,706789.200,711011.400,368819.800,310837.100,677224.300,0.000
303967.100,287750.500,711184.600,707104.900,711034.100,368910.000,311072.500,677208.600,0.000
304294.100,288069.400,711205.100,707609.600,711053.600,369085.900,311443.100,677302.900,0.000
304014.100,287794.700,711183.200,707183.100,711032.800,368822.200,311184.000,676922.500,0.000
303673.000,287466.500,711163.800,706509.700,711014.400,368458.800,310754.900,676400.600,0.000
303872.700,287664.600,711177.800,706678.400,711028.400,368474.400,310881.300,676290.400,0.000
304243.500,288024.900,711200.400,707243.600,711049.900,368672.000,311282.300,676395.900,0.000
304076.400,287860.600,711185.900,707002.900,711035.500,368495.300,311150.100,676100.600,0.000
303677.200,287474.200,711164.300,706261.800,711015.200,368098.800,310678.200,675543.300,0.000
303792.900,287588.300,711175.500,706279.500,711026.600,368056.200,310706.400,675358.800,0.000
304187.800,287973.500,711199.400,706850.000,711049.600,368264.400,311114.000,675462.900,0.000
304123.100,287908.600,711190.200,706784.400,711041.100,368170.000,311099.700,675251.600,0.000
303694.900,287494.200,711167.600,706029.900,711019.500,367765.700,310617.500,674686.800,0.000
303715.500,287516.400,711176.900,705899.400,711028.600,367651.900,310545.000,674423.300,0.000
304119.200,287909.900,711202.900,706459.000,711054.100,367849.900,310941.000,674516.900,0.000
304174.100,287964.700,711200.400,706578.600,711051.300,367838.800,311051.900,674397.600,0.000
303736.900,287540.100,711172.600,705846.800,711024.300,367437.500,310585.200,673840.400,0.000
303644.700,287449.500,711173.000,705539.800,711025.200,367239.400,310396.800,673482.100,0.000
304020.000,287810.800,711197.800,706026.900,711049.400,367409.800,310752.300,673535.300,0.000
304186.100,287972.600,711203.800,706305.900,711054.400,367480.400,310979.400,673496.400,0.000
303792.200,287591.300,711181.400,705666.000,711033.100,367127.100,310581.300,672991.800,0.000
303601.500,287410.200,711175.300,705214.400,711027.600,366864.000,310294.900,672557.900,0.000
303912.200,287710.200,711192.500,705578.600,711044.900,366968.100,310560.400,672532.400,0.000
304159.300,287949.100,711204.100,705967.600,711055.900,367090.100,310863.400,672537.000,0.000
303846.900,287639.500,711187.100,705464.100,711038.900,366800.100,310557.300,672085.600,0.000
303586.500,287385.400,711178.000,704913.300,711030.300,366488.700,310195.700,671586.000,0.000
303824.200,287617.100,711193.600,705150.000,711045.900,366543.900,310382.000,671493.400,0.000
304143.900,287929.300,711212.700,705623.400,711064.300,366714.100,310747.300,671545.700,0.000
303896.000,287683.900,711193.900,705255.300,711046.200,366479.000,310530.000,671160.900,0.000
303545.100,287340.400,711175.100,704598.100,711028.300,366109.200,310096.800,670603.100,0.000
303732.900,287527.200,711190.400,704735.000,711043.200,366115.400,310205.800,670446.900,0.000
304087.400,287872.500,711208.300,705245.300,711060.700,366297.300,310589.900,670499.400,0.000
303934.300,287721.300,711190.200,705033.800,711043.300,366124.400,310474.100,670177.100,0.000
303540.000,287335.800,711169.100,704336.900,711023.100,365735.100,310015.200,669580.400,0.000
303625.500,287419.500,711182.200,704312.700,711036.100,365681.200,310029.800,669324.200,0.000
304004.400,287791.600,711207.300,704826.400,711060.300,365874.800,310427.100,669362.200,0.000
303978.700,287760.800,711200.600,704799.400,711054.200,365807.100,310453.500,669126.600,0.000
303559.600,287353.900,711174.900,704089.600,711028.900,365408.600,309981.400,668510.300,0.000
303557.600,287355.700,711181.100,703919.400,711034.900,365281.400,309888.300,668182.300,0.000
303945.200,287731.000,711210.300,704416.800,711064.000,365473.800,310277.500,668225.000,0.000
304031.900,287815.500,711214.100,704561.500,711067.900,365495.000,310427.200,668090.200,0.000
303597.600,287391.200,711182.500,703867.100,711036.900,365090.800,309962.800,667473.600,0.000
303489.000,287289.000,711177.600,703537.600,711032.600,364875.700,309748.800,667035.000,0.000
303864.200,287655.200,711207.600,703980.600,711061.800,365050.000,310097.900,667029.400,0.000
304071.300,287862.200,711221.000,704285.400,711074.600,365155.500,310360.300,666972.800,0.000
303649.300,287448.900,711181.500,703654.700,711035.900,364769.500,309932.600,666383.800,0.000
303419.400,287226.300,711166.600,703174.200,711021.800,364475.900,309610.000,665869.900,0.000
303746.500,287544.800,711200.300,703532.800,711054.600,364617.100,309909.900,665836.300,0.000
304010.900,287798.800,711216.900,703917.200,711070.600,364761.300,310238.700,665821.400,0.000
303728.200,287520.300,711198.000,703465.600,711052.500,364490.600,309960.000,665347.700,0.000
303479.200,287280.100,711194.900,702940.600,711050.300,364197.800,309616.700,664820.200,0.000
303630.500,287425.000,711187.800,703052.300,711042.800,364165.700,309709.300,664591.900,0.000
303957.000,287741.500,711207.800,703490.800,711062.600,364343.700,310081.400,664605.000,0.000
303767.700,287554.500,711195.600,703190.800,711050.900,364155.400,309918.000,664223.600,0.000
303448.000,287242.800,711185.900,702582.300,711041.300,363820.300,309514.500,663659.800,0.000
303609.400,287398.800,711205.400,702664.100,711060.700,363826.200,309608.600,663460.900,0.000
303935.600,287717.100,711218.100,703106.600,711072.800,363989.800,309972.500,663458.900,0.000
303813.000,287597.800,711204.200,702937.800,711059.600,363853.000,309897.000,663135.800,0.000
303445.700,287242.500,711188.400,702293.100,711044.400,363494.900,309464.300,662546.600,0.000
303514.600,287310.000,711197.100,702237.600,711053.200,363418.900,309445.000,662259.100,0.000
303863.600,287650.700,711216.300,702688.400,711072.300,363596.200,309819.800,662269.500,0.000
303879.000,287663.100,711217.000,702707.800,711072.800,363572.900,309895.700,662070.100,0.000
303475.100,287268.600,711191.700,702035.900,711048.200,363189.000,309438.900,661461.600,0.000
303427.200,287222.400,711190.800,701812.200,711047.600,363028.000,309302.500,661081.300,0.000
303793.300,287576.600,711217.400,702253.300,711074.400,363211.700,309673.200,661092.500,0.000
303900.000,287676.800,711220.300,702398.100,711076.900,363243.400,309835.600,660949.900,0.000
303514.600,287305.700,711194.800,701777.100,711051.500,362887.600,309421.800,660370.800,0.000
303376.300,287172.800,711190.200,701424.500,711047.000,362669.900,309194.900,659919.100,0.000
303694.400,287475.800,711209.900,701775.900,711066.500,362802.900,309494.400,659866.400,0.000
303891.000,287660.800,711218.000,702049.400,711074.600,362901.700,309754.800,659794.500,0.000
303567.600,287346.800,711200.600,701547.300,711058.000,362613.600,309431.600,659293.400,0.000
303366.800,287155.800,711197.100,701116.100,711054.900,362365.700,309144.500,658816.700,0.000
303613.700,287392.900,711209.500,701364.200,711067.300,362436.200,309357.600,658701.600,0.000
303872.300,287642.200,711219.800,701719.600,711077.100,362566.700,309670.300,658662.600,0.000
303600.800,287376.900,711200.400,701308.000,711057.700,362311.500,309408.900,658201.300,0.000
303305.500,287092.600,711184.500,700754.700,711042.100,361989.200,309026.600,657645.600,0.000
303524.900,287305.100,711203.900,700934.400,711061.500,362041.900,309192.100,657507.300,0.000
303857.200,287626.500,711226.800,701380.200,711084.200,362229.300,309576.000,657540.900,0.000
303684.400,287458.500,711213.300,701128.500,711071.300,362059.700,309440.400,657181.200,0.000
303335.400,287117.400,711195.200,700517.600,711053.800,361707.900,309016.100,656589.900,0.000
303442.300,287218.000,711201.600,700536.100,711060.300,361664.800,309052.000,656334.800,0.000
303804.200,287569.300,711226.200,701002.500,711084.300,361864.800,309448.000,656371.900,0.000
303738.300,287502.500,711222.200,700902.800,711079.800,361784.700,309436.200,656110.100,0.000
303341.900,287117.700,711195.300,700237.700,711053.600,361402.200,308979.600,655496.500,0.000
303387.700,287162.300,711203.400,700142.300,711062.300,361321.700,308943.100,655197.500,0.000
303750.400,287515.300,711229.100,700591.100,711087.600,361516.900,309325.400,655219.000,0.000
303773.100,287538.100,711225.600,700628.900,711084.100,361492.500,309402.800,655013.900,0.000
303382.400,287152.700,711197.800,699998.300,711056.700,361125.300,308963.300,654419.400,0.000
303309.400,287079.800,711194.100,699751.600,711053.600,360952.200,308802.000,654022.100,0.000
303657.800,287416.800,711222.300,700175.600,711081.600,361136.300,309162.500,654036.100,0.000
303796.600,287552.400,711234.500,700373.500,711093.400,361212.400,309371.900,653945.400,0.000
303455.700,287222.000,711217.300,699824.500,711076.800,360899.400,309000.200,653412.000,0.000
303297.600,287072.100,711206.900,699459.000,711066.900,360666.900,308745.800,652947.300,0.000
303576.000,287337.600,711223.900,699779.300,711083.600,360780.300,309016.200,652887.000,0.000
303766.500,287519.100,711231.400,700066.900,711090.600,360881.700,309283.800,652832.200,0.000
303433.100,287193.700,711206.500,699566.400,711066.400,360574.200,308951.400,652319.300,0.000
303216.300,286986.100,711198.400,699114.800,711058.400,360308.800,308642.100,651820.400,0.000
303461.300,287224.200,711214.600,699355.000,711074.200,360384.300,308850.900,651709.900,0.000
303746.100,287497.200,711232.900,699741.600,711092.100,360540.000,309193.100,651731.500,0.000
303509.300,287265.000,711216.800,699390.400,711076.500,360310.100,308967.300,651385.000,0.000
303215.700,286980.100,711204.000,698850.700,711064.400,359994.200,308582.100,650953.900,0.000
303374.600,287134.700,711211.400,698958.100,711071.500,359992.800,308680.000,650840.300,0.000
303704.300,287454.100,711235.300,699392.200,711095.100,360180.900,309057.700,650898.600,0.000
303562.900,287314.100,711224.800,699182.400,711085.100,360029.800,308945.800,650577.500,0.000
303194.100,286959.100,711196.700,698556.300,711057.500,359653.300,308498.200,649972.400,0.000
303302.100,287065.100,711211.100,698564.400,711071.900,359624.500,308538.800,649721.000,0.000
303652.100,287399.900,711236.500,699007.100,711097.100,359820.000,308929.100,649736.100,0.000
303587.900,287329.300,711227.000,698916.600,711087.500,359731.700,308918.900,649462.900,0.000
303217.200,286966.800,711204.400,698290.500,711065.400,359374.800,308483.400,648884.700,0.000
303238.800,286989.400,711212.300,698172.800,711073.300,359287.400,308428.700,648591.900,0.000
303589.800,287328.000,711240.400,698601.500,711100.800,359478.900,308803.100,648620.300,0.000
303667.500,287402.200,711247.600,698696.300,711107.400,359502.900,308938.300,648467.100,0.000
303290.500,287037.400,711224.300,698090.800,711084.900,359153.000,308520.500,647883.500,0.000
303147.300,286899.700,711203.100,697758.600,711064.600,358920.200,308286.900,647419.600,0.000
303493.400,287233.300,711232.000,698148.600,711093.000,359095.500,308630.900,647429.100,0.000
303636.800,287363.900,711240.900,698347.200,711102.000,359165.800,308842.700,647339.900,0.000
303291.800,287026.700,711219.600,697809.800,711081.400,358854.000,308476.400,646809.700,0.000
303158.300,286903.300,711221.400,697465.600,711083.300,358658.400,308250.900,646376.400,0.000
303409.100,287147.300,711234.900,697736.400,711096.300,358742.300,308483.300,646275.100,0.000
303605.600,287334.600,711241.300,698015.900,711102.800,358841.300,308745.500,646212.100,0.000
303322.800,287058.200,711223.300,697578.700,711085.600,358583.200,308464.200,645748.300,0.000
303087.700,286833.900,711212.600,697103.600,711074.800,358305.500,308133.900,645237.100,0.000
303335.200,287076.800,711235.100,697332.700,711097.200,358391.600,308336.100,645131.200,0.000
303603.100,287337.100,711246.800,697695.900,711108.600,358535.000,308654.800,645108.200,0.000
303384.300,287126.600,711229.500,697371.300,711091.600,358328.800,308455.300,644698.600,0.000
303090.000,286847.000,711216.300,696830.000,711078.900,358021.600,308077.600,644150.800,0.000
303266.400,287021.700,711235.300,696952.400,711098.300,358055.100,308198.200,643983.800,0.000
303557.200,287300.700,711249.500,697347.100,711111.800,358206.000,308534.000,643974.800,0.000
303426.000,287170.800,711236.300,697158.900,711098.500,358068.100,308441.000,643644.300,0.000
303087.500,286848.600,711218.600,696564.700,711081.100,357731.700,308027.100,643065.600,0.000
303206.200,286969.100,711238.400,696571.500,711100.900,357720.400,308072.600,642836.900,0.000
303554.200,287307.200,711264.200,697011.400,711126.400,357918.400,308454.900,642866.300,0.000
303448.000,287202.100,711238.400,696893.300,711100.100,357788.600,308403.000,642550.100,0.000
303079.300,286846.900,711215.200,696283.000,711077.700,357438.800,307976.100,641962.400,0.000
303078.600,286849.100,711218.900,696132.300,711081.800,357329.800,307891.500,641625.600,0.000
303419.800,287179.600,711245.400,696541.000,711108.200,357509.500,308248.700,641630.100,0.000
303498.300,287255.000,711248.400,696645.700,711111.500,357534.700,308390.500,641477.800,0.000
303120.800,286885.400,711220.800,696053.200,711084.200,357189.700,307981.500,640903.800,0.000
303038.300,286804.900,711223.900,695786.900,711086.800,357028.400,307809.100,640510.800,0.000
303347.400,287103.300,711247.400,696139.300,711109.900,357175.000,308114.800,640481.800,0.000
303486.500,287235.000,711250.100,696337.800,711112.600,357231.800,308314.500,640369.800,0.000
303162.300,286921.700,711228.500,695833.800,711091.200,356932.400,307966.800,639846.800,0.000
302995.300,286766.300,711225.100,695459.300,711088.000,356713.600,307709.400,639386.100,0.000
303246.500,287008.900,711245.700,695729.600,711108.600,356812.600,307947.100,639298.400,0.000
303451.900,287206.800,711250.100,696014.900,711113.100,356910.300,308213.700,639232.800,0.000
303188.600,286949.600,711229.300,695603.900,711093.000,356661.300,307949.800,638773.600,0.000
302949.800,286720.900,711219.300,695125.500,711083.400,356385.700,307618.800,638255.600,0.000
303154.800,286919.300,711235.300,695299.400,711098.800,356434.300,307783.000,638110.400,0.000
303417.300,287174.000,711248.300,695660.400,711111.800,356576.800,308108.800,638092.600,0.000
303230.200,286993.000,711234.100,695377.200,711098.400,356394.400,307944.900,637708.400,0.000
302937.800,286711.500,711219.900,694834.300,711084.300,356087.600,307565.700,637155.000,0.000
303062.700,286833.100,711233.200,694889.700,711096.900,356082.100,307637.000,636940.400,0.000
303382.400,287144.400,711260.100,695311.600,711123.600,356275.300,308015.500,636972.300,0.000
303289.300,287053.800,711254.700,695179.000,711118.400,356174.900,307969.000,636684.200,0.000
302928.900,286706.300,711226.600,694569.700,711090.800,355815.800,307530.400,636082.700,0.000
302968.800,286747.700,711229.800,694492.000,711093.900,355733.800,307492.000,635779.400,0.000
303272.000,287041.000,711247.400,694876.300,711111.200,355881.300,307822.600,635760.600,0.000
