EEG 1, EEG 2, EEG 3, EEG 4, EEG 5, EEG 6, EEG 7, EEG 8, TRIG
519020.800,-553437.000,69122.150,267809.800,-182102.000,272767.100,275708.300,-261553.000,0.000
460260.800,-750000.100,-354841.000,262338.300,-254365.900,458301.600,39979.580,-219508.500,0.000
670373.600,-750000.100,-323040.700,479387.800,-346138.200,571491.400,-341423.800,-175273.600,0.000
750000.100,-488453.900,612804.400,454846.300,69729.040,586739.300,-160025.200,59131.630,0.000
750000.100,50958.760,750000.100,524724.100,415069.200,735145.800,354559.800,346023.000,0.000
750000.100,625818.400,750000.100,750000.100,562261.100,750000.100,543810.200,463415.300,0.000
750000.100,674202.500,750000.100,750000.100,724432.400,750000.100,631536.500,570562.200,0.000
750000.100,673683.300,681690.800,750000.100,673369.400,750000.100,614816.400,642160.100,0.000
750000.100,680624.900,750000.100,750000.100,657814.900,750000.100,589406.100,643387.100,0.000
750000.100,750000.100,750000.100,750000.100,691602.600,750000.100,595333.000,750000.100,0.000
750000.100,750000.100,750000.100,750000.100,750000.100,750000.100,750000.100,750000.100,0.000
750000.100,750000.100,750000.100,750000.100,750000.100,750000.100,750000.100,750000.100,0.000
750000.100,750000.100,750000.100,750000.100,750000.100,750000.100,750000.100,750000.100,0.000
750000.100,750000.100,750000.100,750000.100,750000.100,750000.100,750000.100,750000.100,0.000
750000.100,750000.100,750000.100,750000.100,750000.100,750000.100,750000.100,750000.100,0.000
750000.100,729808.400,750000.100,750000.100,750000.100,750000.100,750000.100,750000.100,0.000
750000.100,656272.600,750000.100,750000.100,750000.100,750000.100,750000.100,750000.100,0.000
750000.100,626623.900,750000.100,750000.100,750000.100,750000.100,750000.100,750000.100,0.000
725748.300,602768.300,750000.100,750000.100,750000.100,750000.100,750000.100,750000.100,0.000
696412.400,581746.800,750000.100,750000.100,750000.100,750000.100,750000.100,750000.100,0.000
670441.800,563123.700,750000.100,750000.100,750000.100,750000.100,750000.100,750000.100,0.000
646522.000,545775.000,750000.100,750000.100,750000.100,750000.100,750000.100,750000.100,0.000
624066.000,529283.000,750000.100,750000.100,750000.100,750000.100,750000.100,750000.100,0.000
603954.600,514522.800,750000.100,750000.100,750000.100,750000.100,750000.100,750000.100,0.000
586099.700,501448.200,750000.100,750000.100,750000.100,750000.100,750000.100,750000.100,0.000
569511.200,489190.200,750000.100,750000.100,750000.100,750000.100,750000.100,750000.100,0.000
553531.100,477220.400,750000.100,750000.100,750000.100,750000.100,750000.100,750000.100,0.000
539002.300,466344.000,750000.100,750000.100,750000.100,750000.100,750000.100,750000.100,0.000
526143.800,456783.300,750000.100,750000.100,750000.100,750000.100,750000.100,750000.100,0.000
514210.100,447864.300,750000.100,750000.100,750000.100,750000.100,750000.100,750000.100,0.000
502467.000,438929.900,750000.100,750000.100,750000.100,750000.100,750000.100,750000.100,0.000
491571.800,430635.700,750000.100,750000.100,750000.100,750000.100,750000.100,750000.100,0.000
482000.600,423417.600,750000.100,750000.100,750000.100,750000.100,750000.100,750000.100,0.000
473175.300,416747.900,750000.100,750000.100,750000.100,750000.100,750000.100,750000.100,0.000
464320.800,409937.900,750000.100,750000.100,750000.100,750000.100,750000.100,750000.100,0.000
455896.300,403431.000,750000.100,750000.100,750000.100,750000.100,750000.100,750000.100,0.000
448555.000,397833.700,750000.100,750000.100,750000.100,750000.100,750000.100,750000.100,0.000
441876.000,392753.600,750000.100,750000.100,750000.100,750000.100,750000.100,750000.100,0.000
435102.500,387497.900,750000.100,750000.100,750000.100,750000.100,740053.900,750000.100,0.000
428468.500,382312.200,750000.100,750000.100,750000.100,750000.100,724603.800,750000.100,0.000
422695.900,377867.300,750000.100,750000.100,750000.100,750000.100,710412.800,750000.100,0.000
417556.600,373938.700,750000.100,750000.100,750000.100,750000.100,697348.800,750000.100,0.000
412325.400,369861.800,750000.100,750000.100,750000.100,750000.100,684574.000,750000.100,0.000
406974.000,365636.500,750000.100,750000.100,750000.100,750000.100,671905.000,750000.100,0.000
402313.800,362014.200,750000.100,750000.100,750000.100,750000.100,660192.000,750000.100,0.000
398280.800,358916.700,750000.100,750000.100,750000.100,750000.100,649490.300,750000.100,0.000
394230.800,355760.400,750000.100,750000.100,750000.100,750000.100,639095.700,750000.100,0.000
389894.800,352305.800,750000.100,750000.100,750000.100,750000.100,628589.600,750000.100,0.000
386042.100,349275.800,750000.100,750000.100,750000.100,750000.100,618746.600,750000.100,0.000
382819.600,346796.800,750000.100,750000.100,750000.100,750000.100,609841.600,750000.100,0.000
379654.200,344334.700,750000.100,750000.100,750000.100,750000.100,601271.700,750000.100,0.000
376120.700,341512.500,750000.100,750000.100,750000.100,750000.100,592475.800,750000.100,0.000
372883.100,338954.000,750000.100,750000.100,750000.100,750000.100,584084.800,750000.100,0.000
370264.500,336937.300,750000.100,750000.100,750000.100,750000.100,576558.600,750000.100,0.000
367781.700,335014.600,750000.100,750000.100,750000.100,750000.100,569425.400,750000.100,0.000
364895.600,332698.500,750000.100,750000.100,750000.100,750000.100,562010.300,750000.100,0.000
362138.700,330498.000,750000.100,750000.100,750000.100,750000.100,554782.100,750000.100,0.000
359986.700,328841.800,750000.100,750000.100,750000.100,750000.100,548348.300,750000.100,0.000
358040.900,327349.600,750000.100,750000.100,750000.100,750000.100,542357.700,750000.100,0.000
355709.800,325484.300,750000.100,750000.100,750000.100,750000.100,536098.100,750000.100,0.000
353346.800,323588.800,750000.100,750000.100,750000.100,750000.100,529830.100,750000.100,0.000
351516.500,322172.900,750000.100,750000.100,750000.100,750000.100,524231.000,750000.100,0.000
349967.700,320996.000,750000.100,750000.100,750000.100,750000.100,519122.100,750000.100,0.000
348107.400,319515.800,750000.100,750000.100,750000.100,750000.100,513821.400,750000.100,0.000
346055.800,317859.600,750000.100,750000.100,750000.100,750000.100,508335.000,750000.100,0.000
344466.300,316623.300,750000.100,750000.100,750000.100,750000.100,503400.800,750000.100,0.000
343243.200,315704.600,750000.100,750000.100,750000.100,750000.100,499007.800,750000.100,0.000
341780.900,314552.400,750000.100,750000.100,750000.100,750000.100,494502.800,750000.100,0.000
339988.700,313095.300,750000.100,750000.100,750000.100,750000.100,489671.200,750000.100,0.000
338592.900,312005.100,750000.100,750000.100,750000.100,750000.100,485280.300,750000.100,0.000
337607.100,311281.700,750000.100,750000.100,750000.100,750000.100,481461.600,750000.100,0.000
336475.800,310408.800,750000.100,750000.100,750000.100,750000.100,477625.200,750000.100,0.000
334937.000,309154.300,750000.100,750000.100,750000.100,750000.100,473381.500,750000.100,0.000
333675.000,308161.400,749362.600,749423.600,749130.800,749627.200,469426.600,750000.100,0.000
332861.400,307573.700,747682.800,747743.900,747451.500,747946.600,466059.300,748388.100,0.000
331999.300,306926.700,746070.500,746131.500,745839.700,746333.600,462773.300,746775.100,0.000
330649.900,305825.300,744497.200,744558.000,744267.000,744760.300,459004.200,745200.900,0.000
329517.500,304931.600,743009.500,743070.400,742780.100,743272.300,455426.800,743712.600,0.000
328850.600,304457.100,741619.000,741680.200,741390.500,741881.400,452448.000,742321.400,0.000
328220.500,304007.100,740288.800,740349.600,740060.900,740550.500,449639.200,740990.600,0.000
327119.700,303114.500,738980.800,739041.600,738753.400,739242.300,446376.900,739681.900,0.000
326014.200,302224.500,737737.300,737798.100,737510.400,737998.500,443068.700,738438.000,0.000
325395.300,301782.000,736582.300,736643.100,736356.000,736842.600,440327.100,737282.300,0.000
324940.300,301475.800,735482.100,735542.800,735256.800,735742.100,437879.500,736181.300,0.000
324072.600,300778.100,734400.800,734461.200,734176.100,734661.000,435060.100,735099.600,0.000
323045.700,299941.400,733358.300,733418.700,733134.100,733618.800,432027.500,734056.800,0.000
322478.700,299530.900,732396.000,732456.900,732172.400,732656.100,429503.400,733094.200,0.000
322167.900,299350.000,731491.000,731552.000,731267.600,731750.400,427367.000,732188.900,0.000
321488.200,298816.100,730592.800,730653.400,730369.200,730851.800,424917.700,731289.800,0.000
320536.800,298036.300,729721.800,729782.600,729498.700,729980.600,422147.800,730418.500,0.000
319984.600,297627.200,728918.600,728979.600,728696.300,729177.000,419788.400,729615.100,0.000
319759.900,297512.000,728166.300,728227.300,727944.100,728424.700,417876.800,728862.800,0.000
319274.800,297148.900,727426.600,727487.700,727204.900,727685.300,415780.400,728123.400,0.000
318395.800,296422.800,726695.800,726756.300,726474.100,726953.700,413242.600,727391.600,0.000
317834.800,295996.700,726022.900,726083.600,725801.600,726280.600,411012.500,726718.600,0.000
317661.100,295922.300,725402.800,725463.400,725182.100,725660.400,409280.900,726098.300,0.000
317349.000,295707.300,724796.400,724857.100,724575.800,725053.900,407492.700,725491.900,0.000
316568.500,295059.400,724186.800,724247.000,723966.100,724444.100,405205.200,724881.600,0.000
315990.000,294606.800,723620.400,723680.800,723400.300,723877.300,403077.300,724314.800,0.000
315841.300,294548.800,723104.600,723165.000,722884.900,723361.500,401470.200,723798.900,0.000
315656.500,294447.800,722606.400,722666.900,722386.900,722862.900,399927.100,723300.400,0.000
315004.200,293914.000,722101.800,722162.400,721882.600,722358.300,397896.000,722795.900,0.000
314408.500,293439.600,721624.300,721684.700,721405.200,721880.800,395864.700,722318.200,0.000
314266.200,293382.600,721199.400,721260.400,720980.900,721455.800,394358.600,721893.500,0.000
314181.200,293367.200,720789.000,720849.600,720570.500,721045.100,393015.500,721482.700,0.000
313632.000,292918.100,720364.100,720424.300,720145.600,720619.900,391203.700,721057.400,0.000
313018.500,292420.700,719960.200,720020.800,719742.200,720216.300,389260.800,720653.700,0.000
312853.200,292335.100,719606.300,719667.100,719388.400,719862.200,387809.800,720299.800,0.000
312862.400,292400.300,719275.900,719336.800,719058.200,719531.900,386642.400,719969.700,0.000
312450.100,292073.000,718925.900,718986.300,718708.100,719182.300,385076.100,719619.600,0.000
311836.100,291566.500,718582.700,718643.300,718365.100,718838.700,383229.000,719276.500,0.000
311644.900,291449.400,718285.900,718346.500,718068.600,718541.600,381821.400,718979.800,0.000
311711.700,291569.600,718017.600,718078.100,717800.400,718273.300,380778.600,718710.900,0.000
311410.700,291339.000,717729.600,717789.800,717512.400,717984.900,379417.600,718422.600,0.000
310809.600,290835.600,717440.600,717500.900,717224.000,717696.300,377683.800,718134.100,0.000
310567.800,290671.800,717190.200,717250.500,716973.400,717445.700,376294.400,717883.400,0.000
310656.700,290807.900,716972.600,717032.800,716755.800,717227.600,375341.800,717665.600,0.000
310503.400,290710.500,716743.400,716802.900,716526.800,716998.300,374206.500,717436.400,0.000
309939.400,290237.800,716500.400,716559.800,716283.900,716755.100,372599.900,717193.800,0.000
309647.400,290022.000,716289.400,716348.900,716073.200,716544.400,371229.200,716983.000,0.000
309731.900,290147.900,716109.300,716169.300,715893.100,716364.300,370326.800,716802.400,0.000
309683.300,290143.400,715922.900,715983.000,715706.200,716177.600,369365.400,716616.000,0.000
309165.200,289705.100,715714.900,715774.500,715498.500,715969.500,367886.600,716408.300,0.000
308806.700,289421.900,715529.300,715589.000,715313.200,715784.300,366508.500,716222.900,0.000
308870.700,289526.500,715379.800,715439.500,715164.100,715634.900,365627.100,716073.700,0.000
308922.000,289613.100,715232.900,715292.000,715016.800,715487.300,364820.800,715926.500,0.000
308488.900,289250.300,715060.500,715119.300,714844.600,715314.800,363504.900,715753.800,0.000
308075.200,288913.900,714901.600,714960.400,714686.300,715155.900,362135.800,715595.100,0.000
308103.500,288984.600,714776.600,714835.200,714560.600,715030.600,361261.400,715469.800,0.000
308229.900,289141.700,714663.600,714721.900,714447.300,714917.400,360577.100,715356.700,0.000
307895.200,288866.100,714525.500,714583.900,714309.700,714779.600,359428.700,715218.600,0.000
307450.800,288493.600,714386.800,714445.300,714170.800,714640.600,358084.900,715080.000,0.000
307436.500,288523.000,714282.700,714340.800,714066.900,714536.500,357205.800,714976.300,0.000
307607.400,288715.900,714193.700,714251.400,713977.800,714447.400,356614.200,714887.300,0.000
307369.300,288524.300,714078.100,714136.100,713862.300,714331.900,355630.800,714771.400,0.000
306888.000,288116.300,713953.000,714010.700,713736.800,714206.900,354315.100,714646.400,0.000
306809.500,288083.700,713862.200,713919.300,713645.800,714115.800,353404.000,714555.700,0.000
307001.700,288291.600,713793.000,713850.100,713577.000,714046.300,352862.000,714486.300,0.000
306871.200,288199.500,713699.900,713757.100,713484.200,713953.300,352041.800,714393.300,0.000
306404.100,287803.600,713594.900,713652.000,713379.000,713848.700,350807.100,714288.400,0.000
306256.000,287708.200,713517.200,713574.100,713301.300,713770.400,349868.800,714210.400,0.000
306439.300,287912.000,713462.300,713519.200,713246.700,713715.800,349351.400,714155.700,0.000
306413.200,287915.100,713392.400,713449.200,713176.900,713646.400,348682.800,714085.900,0.000
305955.000,287517.800,713299.100,713355.600,713083.400,713552.600,347517.000,713992.400,0.000
305741.400,287357.100,713230.000,713286.100,713014.100,713483.400,346544.200,713923.300,0.000
305920.900,287556.600,713189.300,713245.400,712973.200,713443.100,346045.600,713882.500,0.000
305981.300,287637.600,713135.900,713191.800,712919.800,713389.600,345500.200,713829.200,0.000
305563.900,287274.900,713052.900,713109.100,712836.800,713306.400,344431.500,713746.600,0.000
305279.300,287043.200,712987.600,713043.400,712771.600,713241.100,343424.500,713681.300,0.000
305416.700,287202.100,712952.200,713007.800,712736.600,713205.900,342902.000,713646.000,0.000
305571.100,287367.600,712917.300,712972.800,712701.800,713170.800,342480.200,713610.600,0.000
305236.900,287079.700,712851.300,712906.300,712635.400,713104.600,341546.100,713544.800,0.000
304884.900,286784.500,712787.700,712842.700,712572.100,713041.100,340517.000,713481.700,0.000
304967.000,286891.700,712757.600,712812.600,712542.200,713011.100,339965.300,713451.400,0.000
305159.200,287094.100,712731.400,712786.300,712516.300,712984.800,339610.000,713425.200,0.000
304900.900,286875.100,712676.300,712730.800,712460.800,712929.300,338803.500,713370.100,0.000
304501.800,286534.100,712620.800,712674.800,712405.100,712873.900,337772.000,713314.500,0.000
304530.700,286590.300,712592.700,712646.800,712377.100,712846.100,337177.300,713286.800,0.000
304754.500,286820.100,712575.100,712629.400,712359.400,712828.800,336871.900,713269.600,0.000
304609.200,286702.900,712536.300,712589.800,712320.200,712789.100,336214.600,713230.100,0.000
304188.800,286338.000,712480.500,712533.900,712264.600,712733.300,335195.200,713174.100,0.000
304153.300,286334.800,712456.800,712510.000,712241.300,712709.600,334554.200,713150.300,0.000
304391.600,286580.800,712449.600,712502.600,712234.000,712702.500,334286.300,713143.700,0.000
304329.900,286542.500,712418.200,712471.000,712202.100,712670.600,333756.400,713112.300,0.000
303902.300,286165.600,712365.500,712418.000,712149.300,712618.000,332775.100,713059.700,0.000
303789.600,286087.200,712341.200,712393.100,712125.200,712594.100,332077.000,713035.600,0.000
304023.900,286327.000,712339.900,712392.700,712124.800,712593.100,331814.200,713035.100,0.000
304053.100,286365.600,712316.400,712368.800,712101.100,712569.600,331401.200,713011.100,0.000
303649.400,286009.300,712269.300,712321.300,712053.900,712522.700,330487.300,712964.100,0.000
303460.900,285861.800,712243.200,712295.100,712028.000,712496.700,329736.200,712938.100,0.000
303665.300,286072.800,712242.200,712293.700,712026.800,712495.300,329453.900,712936.900,0.000
303783.100,286197.800,712230.100,712280.800,712015.100,712484.000,329158.600,712925.400,0.000
303423.900,285879.600,712189.100,712237.900,711974.900,712443.800,328335.300,712885.100,0.000
303150.700,285650.500,712156.400,712203.800,711943.000,712411.800,327526.500,712853.300,0.000
303311.200,285825.100,712156.600,712202.700,711943.600,712411.900,327212.500,712854.000,0.000
303499.900,286017.000,712154.300,712199.600,711941.600,712410.100,327006.800,712852.000,0.000
303212.100,285766.300,712120.400,712164.000,711908.600,712376.900,326299.200,712819.200,0.000
302888.900,285489.300,712089.800,712131.200,711879.100,712347.700,325463.200,712789.500,0.000
302994.400,285606.700,712087.800,712127.900,711878.100,712346.300,325087.600,712788.100,0.000
303230.600,285836.600,712092.300,712131.200,711882.800,712350.900,324938.000,712792.500,0.000
303036.600,285669.000,712067.700,712104.800,711858.700,712327.100,324357.200,712768.800,0.000
302659.200,285341.800,712034.100,712069.200,711825.900,712294.500,323502.500,712736.200,0.000
302688.700,285391.800,712027.000,712061.000,711819.400,712287.800,323065.600,712729.700,0.000
302934.200,285637.100,712032.100,712064.800,711824.300,712293.200,322939.500,712734.900,0.000
302838.700,285560.300,712017.300,712048.900,711810.200,712279.300,322489.700,712721.000,0.000
302438.200,285203.800,711984.100,712013.300,711778.600,712246.800,321649.300,712688.900,0.000
302388.900,285180.700,711975.000,712002.800,711770.600,712238.600,321143.400,712680.500,0.000
302646.400,285436.200,711985.500,712012.400,711781.300,712249.600,321035.100,712691.500,0.000
302636.000,285436.500,711975.800,712001.300,711772.200,712240.300,320702.500,712682.600,0.000
302236.600,285080.600,711940.900,711964.400,711738.600,712206.800,319893.000,712648.700,0.000
302128.300,285004.300,711931.200,711952.600,711729.300,712197.900,319337.900,712639.800,0.000
302380.500,285254.400,711945.000,711965.100,711743.400,712211.600,319220.300,712653.900,0.000
302463.400,285340.700,711943.400,711962.400,711742.300,712210.600,318995.900,712652.700,0.000
302072.900,284990.000,711910.200,711927.300,711710.100,712178.300,318238.200,712620.100,0.000
301872.000,284824.600,711893.100,711907.900,711694.000,712162.000,317605.400,712603.900,0.000
302088.400,285044.000,711902.600,711916.400,711703.800,712172.100,317457.200,712614.000,0.000
302247.100,285203.000,711907.100,711919.800,711708.600,712176.900,317323.300,712618.900,0.000
301925.800,284919.500,711880.800,711890.700,711683.100,712151.200,316667.500,712593.700,0.000
301661.200,284692.300,711861.000,711868.600,711664.600,712132.400,315988.100,712574.900,0.000
301824.200,284860.800,711872.200,711878.600,711676.200,712144.500,315788.500,712586.500,0.000
302031.000,285060.800,711883.200,711888.500,711687.300,712155.500,315719.600,712597.500,0.000
301772.100,284828.200,711859.800,711862.900,711665.000,712132.900,315159.000,712574.900,0.000
301454.700,284551.900,711838.200,711838.200,711644.700,712112.600,314443.700,712554.100,0.000
301566.900,284673.800,711846.700,711845.400,711653.600,712121.500,314187.100,712563.000,0.000
301820.300,284918.400,711858.800,711857.300,711665.600,712133.700,314162.100,712575.600,0.000
301644.200,284759.400,711840.900,711837.200,711648.400,712116.700,313710.700,712558.400,0.000
301273.300,284430.100,711815.800,711809.100,711624.400,712092.600,312971.200,712534.800,0.000
301309.000,284484.400,711819.100,711810.600,711628.400,712096.800,312635.800,712538.700,0.000
301571.000,284743.500,711832.800,711823.300,711642.600,712110.800,312625.900,712552.100,0.000
301498.700,284686.400,711822.800,711811.100,711632.800,712101.100,312305.400,712542.900,0.000
301108.900,284335.300,711795.200,711780.500,711606.000,712074.300,311578.100,712515.900,0.000
301058.700,284304.300,711792.900,711775.900,711604.800,712073.300,311164.700,712514.400,0.000
301321.900,284563.800,711812.400,711794.400,711624.700,712092.900,311155.300,712534.500,0.000
301343.600,284593.000,711809.500,711790.000,711622.200,712090.300,310946.800,712532.000,0.000
300960.800,284249.500,711782.100,711758.600,711595.600,712063.900,310256.200,712505.500,0.000
300840.500,284157.700,711778.000,711752.300,711592.800,712060.600,309785.800,712502.400,0.000
301081.900,284395.900,711792.600,711766.100,711608.100,712076.100,309750.300,712517.100,0.000
301195.600,284510.600,711798.100,711769.500,711613.300,712081.800,309646.700,712522.900,0.000
300839.600,284187.100,711770.900,711738.900,711587.500,712055.400,309010.100,712496.900,0.000
300639.400,284016.900,711762.600,711726.000,711579.800,712047.500,308463.100,712489.000,0.000
300851.800,284228.900,711777.600,711739.200,711595.000,712062.600,308392.000,712504.200,0.000
301031.800,284403.300,711784.800,711744.900,711602.100,712069.800,308362.800,712511.400,0.000
300736.600,284135.700,711763.300,711719.000,711581.900,712049.400,307818.700,712490.600,0.000
300465.100,283901.800,711747.500,711697.300,711567.200,712034.600,307216.100,712475.700,0.000
300621.300,284062.800,711761.100,711707.600,711581.100,712048.600,307089.400,712489.900,0.000
300858.400,284290.200,711775.300,711719.200,711595.400,712063.100,307121.300,712504.000,0.000
300641.200,284092.200,711757.800,711689.500,711578.800,712046.500,306679.400,712487.300,0.000
300304.900,283793.800,711731.600,711532.900,711557.400,712024.600,306028.400,712465.100,0.000
300410.400,283907.800,711730.400,711211.900,711566.500,712034.000,305838.800,712473.900,0.000
300676.700,284162.000,711745.100,710981.100,711584.300,712051.800,305908.000,712491.200,0.000
300541.100,284038.700,711731.100,710171.600,711572.100,712039.700,305572.300,712479.100,0.000
300174.800,283708.200,711704.900,708757.300,711548.300,712016.100,304908.600,712455.000,0.000
300196.200,283742.300,711712.100,707887.800,711556.600,712024.600,304636.000,712463.400,0.000
300481.300,284019.000,711733.300,707608.500,711577.900,712046.400,304714.300,712485.100,0.000
300445.900,283990.900,711728.700,706858.100,711574.400,712042.800,304502.800,712481.600,0.000
300062.600,283641.900,711700.300,705393.200,711548.400,712016.300,303850.700,712455.000,0.000
300011.200,283608.700,711701.300,704432.900,711550.800,712018.600,303501.900,712456.800,0.000
300278.700,283868.700,711719.200,704146.400,711568.900,712037.000,303556.900,712475.000,0.000
300329.900,283922.400,711719.400,703612.600,711569.400,712037.000,303442.500,712475.700,0.000
299956.000,283583.300,711693.300,702308.900,711544.500,712012.000,302827.500,712450.400,0.000
299822.400,283473.500,711687.400,701287.600,711539.900,712007.500,302400.000,712445.400,0.000
300065.400,283709.700,711705.300,700971.800,711558.300,712025.800,302426.100,712463.900,0.000
300199.600,283837.500,711712.800,700596.800,711566.200,712033.600,302407.800,712471.800,0.000
299864.000,283530.000,711688.200,699425.800,711542.900,712010.200,301856.300,712448.300,0.000
299659.400,283355.300,711679.700,698331.800,711535.200,712002.900,301366.900,712440.300,0.000
299865.700,283558.100,711698.700,697955.200,711554.300,712021.900,301347.800,712459.000,0.000
300072.200,283755.400,711711.400,697700.100,711567.000,712034.900,301403.400,712472.100,0.000
299800.400,283507.700,711691.900,696676.400,711548.100,712016.300,300945.000,712453.600,0.000
299519.300,283259.800,711674.200,695497.900,711531.300,711999.300,300393.000,712436.300,0.000
299673.300,283414.900,711688.100,695030.200,711545.100,712013.000,300311.300,712450.100,0.000
299919.800,283647.800,711704.300,694847.200,711561.800,712029.900,300408.200,712466.600,0.000
299717.700,283464.100,711688.900,693980.400,711546.900,712014.900,300042.700,712451.300,0.000
299389.700,283171.200,711669.500,692761.800,711527.900,711996.200,299453.600,712431.300,0.000
299485.900,283275.400,711680.600,692193.300,711539.800,712007.300,299304.100,712441.300,0.000
299771.900,283549.900,711702.600,692062.100,711561.600,712029.700,299444.500,712462.400,0.000
299658.800,283447.800,711694.000,691365.900,711553.000,712021.000,299195.500,712452.600,0.000
299283.200,283109.100,711670.200,690126.300,711529.900,711997.500,298583.200,712427.100,0.000
299287.700,283128.500,711671.900,689428.300,711531.900,711999.900,298336.300,712427.600,0.000
299574.500,283406.400,711692.200,689293.500,711552.500,712020.800,298462.900,712446.800,0.000
299570.000,283402.300,711692.400,688774.300,711553.100,712020.900,298331.300,712446.100,0.000
299189.400,283054.100,711668.900,687570.300,711530.200,711997.600,297741.300,712421.400,0.000
299122.900,283002.800,711668.800,686768.900,711529.900,711997.900,297424.100,712419.700,0.000
299404.700,283271.200,711688.100,686613.400,711549.400,712017.200,297533.400,712437.400,0.000
299488.000,283348.900,711693.100,686250.600,711554.700,712022.200,297500.800,712441.100,0.000
299123.000,283015.900,711661.900,685111.100,711530.200,711997.600,296949.500,712414.300,0.000
298967.300,282885.600,711654.400,684230.300,711522.500,711990.400,296543.100,712404.800,0.000
299211.300,283122.900,711675.400,684237.600,711541.100,712009.400,296605.400,712421.900,0.000
299358.600,283262.000,711676.000,684245.700,711546.200,712014.800,296642.400,712425.300,0.000
299032.000,282960.600,711661.700,683446.000,711523.800,711992.100,296149.600,712401.600,0.000
298799.300,282757.500,711650.600,682642.900,711511.600,711979.900,295673.400,712387.400,0.000
298991.600,282946.600,711665.800,682546.700,711527.300,711995.200,295675.300,712401.200,0.000
299201.800,283144.000,711676.100,682598.300,711537.900,712005.900,295776.700,712410.100,0.000
298943.500,282905.100,711657.700,681892.200,711519.600,711987.600,295376.000,712389.400,0.000
298657.100,282651.900,711643.300,680982.300,711505.300,711973.200,294855.000,712372.800,0.000
298793.300,282791.900,711656.900,680755.400,711518.900,711986.500,294796.100,712384.600,0.000
299053.500,283036.000,711674.500,680840.500,711536.400,712004.500,294945.400,712401.200,0.000
298883.600,282879.000,711659.800,680265.000,711522.100,711990.600,294653.100,712384.400,0.000
298544.900,282573.300,711638.400,679278.300,711500.700,711969.000,294092.700,712360.500,0.000
298616.500,282649.800,711646.900,678908.900,711509.000,711977.500,293951.800,712367.100,0.000
298898.700,282916.300,711665.900,678994.100,711528.200,711996.500,294114.600,712384.400,0.000
298815.000,282836.000,711659.400,678558.400,711521.900,711990.000,293928.400,712375.900,0.000
298451.300,282503.700,711635.900,677543.200,711498.400,711966.200,293361.700,712349.500,0.000
298454.400,282519.300,711642.800,677042.900,711505.400,711972.800,293151.100,712353.800,0.000
298747.900,282797.800,711664.800,677110.300,711527.500,711995.100,293319.000,712374.200,0.000
298755.800,282805.600,711661.100,676813.700,711523.600,711991.700,293235.700,712368.800,0.000
298375.200,282458.700,711635.800,675805.100,711498.400,711966.500,292677.400,712340.900,0.000
298300.700,282404.900,711636.100,675167.200,711498.400,711966.400,292384.500,712338.100,0.000
298567.700,282659.200,711654.600,675172.800,711516.600,711984.800,292516.800,712354.600,0.000
298668.200,282751.800,711661.300,675019.900,711523.800,711991.900,292540.200,712359.900,0.000
298316.800,282428.300,711640.300,674084.600,711502.600,711970.900,292038.900,712335.800,0.000
298157.200,282291.500,711634.900,673315.900,711497.600,711965.900,291662.600,712327.800,0.000
298406.400,282528.800,711656.500,673253.600,711518.900,711987.100,291760.100,712346.900,0.000
298593.500,282702.700,711667.800,673209.100,711530.200,711997.900,291863.700,712355.800,0.000
298294.800,282427.100,711648.200,672375.800,711510.900,711978.900,291436.600,712333.900,0.000
298055.000,282215.200,711636.200,671497.200,711498.700,711966.800,290991.000,712318.500,0.000
298238.000,282396.900,711650.700,671327.900,711513.200,711980.700,291016.500,712330.300,0.000
298477.400,282621.500,711665.900,671357.100,711528.100,711995.800,291173.300,712343.400,0.000
298246.900,282405.300,711651.100,670651.300,711513.200,711980.800,290835.600,712325.100,0.000
297946.700,282133.200,711634.300,669691.400,711496.400,711964.300,290335.600,712304.400,0.000
298082.100,282269.800,711648.600,669415.400,711510.300,711978.600,290298.500,712315.800,0.000
298355.000,282524.700,711666.000,669486.300,711528.100,711996.200,290486.000,712331.300,0.000
298206.500,282384.200,711653.900,668928.400,711516.100,711983.900,290248.200,712315.900,0.000
297863.200,282067.300,711631.800,667918.800,711493.600,711961.500,289712.900,712289.700,0.000
297932.500,282141.100,711642.800,667522.200,711504.600,711972.500,289598.300,712297.300,0.000
298226.700,282416.800,711667.300,667616.500,711529.100,711997.300,289808.700,712318.900,0.000
298181.100,282372.700,711662.500,667233.300,711524.900,711992.800,289692.300,712310.700,0.000
297820.700,282044.500,711640.400,666229.900,711502.600,711970.500,289163.600,712283.300,0.000
297785.300,282019.900,711638.000,665677.200,711500.100,711968.100,288937.300,712276.000,0.000
298075.300,282293.100,711657.800,665737.200,711519.400,711987.800,289127.700,712290.900,0.000
298116.800,282333.000,711659.300,665495.900,711520.900,711989.300,289112.400,712286.300,0.000
297756.600,282003.600,711641.600,664529.300,711502.800,711971.100,288609.500,712254.800,0.000
297657.400,281923.600,711640.300,663869.600,711501.600,711970.000,288320.800,712172.500,0.000
297931.300,282184.900,711661.200,663882.400,711522.700,711991.000,288481.700,711790.400,0.000
298060.300,282303.800,711668.100,663776.100,711530.200,711998.400,288555.100,711027.900,0.000
297725.800,281998.500,711645.900,662884.100,711507.400,711976.100,288096.800,709721.300,0.000
297555.500,281852.400,711642.300,662121.600,711504.000,711972.500,287739.400,708384.300,0.000
297785.500,282070.500,711662.100,662057.900,711524.200,711992.400,287843.900,707450.800,0.000
297974.800,282245.600,711672.400,662050.600,711534.600,712003.100,287981.700,706584.600,0.000
297683.600,281973.300,711649.400,661258.000,711511.600,711979.800,287588.700,705282.900,0.000
297437.300,281755.200,711639.100,660392.700,711501.100,711969.100,287163.000,703969.900,0.000
297623.100,281939.700,711656.100,660234.600,711518.300,711986.700,287214.800,703084.500,0.000
297878.900,282182.400,711672.000,660311.600,711533.800,712002.000,287420.600,702354.300,0.000
297655.900,281973.400,711652.900,659659.100,711514.700,711982.400,287123.800,701224.400,0.000
297349.600,281695.600,711638.600,658719.700,711500.100,711967.800,286645.000,699940.700,0.000
297477.000,281821.900,711653.900,658450.900,711515.300,711983.600,286623.100,699029.600,0.000
297759.000,282085.600,711670.800,658558.300,711532.300,712000.600,286843.300,698330.700,0.000
297637.900,281969.600,711661.900,658070.800,711523.600,711991.700,286656.400,697312.900,0.000
297298.700,281658.300,711644.000,657101.600,711505.600,711973.400,286155.100,696032.600,0.000
297360.900,281726.700,711656.100,656712.900,711517.200,711985.100,286053.100,695066.600,0.000
297656.700,282003.600,711678.600,656830.700,711539.600,712007.500,286281.300,694382.800,0.000
297623.500,281970.800,711673.900,656504.200,711535.200,712002.900,286201.600,693463.400,0.000
297253.000,281629.500,711649.300,655529.800,711510.800,711978.600,285688.000,692183.600,0.000
297224.100,281612.300,711652.900,655002.800,711514.200,711981.700,285488.900,691145.100,0.000
297509.600,281882.200,711673.700,655087.300,711534.600,712002.500,285696.500,690446.800,0.000
297568.000,281934.200,711673.500,654905.600,711534.600,712002.700,285715.500,689611.600,0.000
297214.100,281607.700,711651.800,653982.700,711512.600,711980.200,285235.800,688375.100,0.000
297101.500,281511.100,711647.700,653329.900,711508.600,711976.800,284947.500,687215.900,0.000
297361.500,281756.800,711669.600,653355.900,711529.900,711998.100,285105.600,686296.500,0.000
297501.100,281885.600,711676.600,653300.100,711536.400,712004.700,285196.100,685709.600,0.000
297168.500,281578.000,711653.100,652453.600,711513.200,711980.900,284749.400,684792.500,0.000
296984.100,281418.000,711647.200,651693.600,711507.200,711975.100,284380.400,683921.400,0.000
297208.200,281632.800,711666.600,651640.100,711526.800,711995.000,284482.300,683430.600,0.000
297409.000,281818.100,711674.700,651678.800,711534.800,712003.100,284636.400,682993.000,0.000
297139.100,281566.400,711656.600,650957.100,711516.600,711984.800,284278.500,682144.700,0.000
296888.800,281343.800,711645.500,650113.300,711505.300,711973.200,283852.100,681226.100,0.000
297056.200,281508.800,711661.100,649955.100,711520.800,711988.800,283882.900,680674.700,0.000
297308.300,281744.600,711675.000,650064.700,711534.600,712002.700,284085.000,680272.000,0.000
297112.900,281561.600,711658.500,649489.100,711518.100,711986.000,283821.100,679499.700,0.000
296797.000,281276.500,711640.500,648568.200,711499.900,711967.800,283338.100,678535.300,0.000
296901.200,281386.800,711653.000,648300.400,711512.600,711980.300,283299.900,677923.000,0.000
297209.300,281675.600,711679.300,648470.100,711539.100,712007.100,283554.300,677564.400,0.000
297105.600,281574.700,711669.000,648055.600,711528.100,711996.600,283400.400,676882.800,0.000
296753.000,281252.400,711647.200,647116.400,711506.100,711974.300,282899.600,675905.900,0.000
296790.600,281299.900,711656.100,646731.600,711514.600,711982.900,282780.300,675230.100,0.000
297082.900,281574.500,711676.200,646874.100,711534.600,712003.100,283009.600,674845.600,0.000
297059.600,281545.200,711667.100,646602.000,711525.600,711993.800,282950.300,674233.300,0.000
296698.700,281213.000,711646.100,645679.900,711504.600,711972.800,282460.000,673272.100,0.000
296657.700,281185.900,711651.700,645166.900,711510.500,711978.300,282258.100,672530.800,0.000
296944.600,281454.900,711673.100,645272.400,711531.900,712000.000,282466.500,672128.300,0.000
297031.100,281530.000,711676.300,645161.900,711534.600,712003.100,282522.100,671615.700,0.000
296683.900,281206.100,711655.400,644291.800,711513.400,711981.800,282066.300,670688.400,0.000
296553.900,281092.800,711651.800,643643.400,711510.300,711978.000,281769.000,669870.900,0.000
296816.300,281339.800,711672.300,643688.900,711530.800,711999.300,281938.100,669435.600,0.000
296975.500,281480.100,711681.600,643695.300,711539.900,712008.500,282075.400,668985.900,0.000
296664.400,281190.200,711661.100,642918.400,711519.600,711987.900,281680.200,668109.900,0.000
296463.400,281014.200,711652.100,642174.400,711510.100,711978.400,281317.200,667245.000,0.000
296681.300,281225.500,711668.400,642136.300,711526.600,711994.800,281430.200,666763.900,0.000
296911.100,281436.400,711682.100,642236.100,711539.900,712008.400,281631.900,666366.400,0.000
296665.100,281201.400,711664.100,641584.900,711521.600,711990.100,281320.300,665559.700,0.000
296391.200,280956.100,711650.300,640746.300,711507.800,711976.100,280894.100,664645.600,0.000
296555.900,281116.800,711665.800,640602.600,711523.300,711991.800,280941.700,664111.600,0.000
296836.100,281376.700,711684.300,640766.500,711541.300,712009.900,281191.300,663755.800,0.000
296663.100,281214.400,711671.400,640265.200,711528.500,711996.900,280979.800,663037.200,0.000
296333.400,280914.300,711653.800,639373.900,711510.700,711979.400,280512.700,662096.600,0.000
296426.500,281010.700,711664.800,639110.400,711521.700,711990.600,280476.100,661499.400,0.000
296724.700,281288.800,711683.900,639294.300,711541.400,712010.000,280736.000,661152.600,0.000
296650.900,281217.000,711678.800,638953.200,711535.800,712003.900,280634.500,660522.100,0.000
296289.300,280885.000,711656.300,638041.400,711513.000,711981.600,280148.600,659572.800,0.000
296297.300,280901.000,711660.300,637642.800,711517.200,711985.500,280015.800,658897.600,0.000
296607.300,281190.900,711684.400,637824.300,711541.000,712009.600,280273.400,658551.200,0.000
296638.300,281216.700,711686.400,637652.100,711542.700,712011.400,280285.600,658020.000,0.000
296302.100,280907.600,711668.900,636789.000,711524.900,711993.200,279832.600,657111.800,0.000
296196.500,280816.000,711660.700,636235.100,711516.500,711985.200,279583.700,656343.200,0.000
296462.500,281062.800,711678.900,636348.900,711535.100,712003.800,279792.700,655953.400,0.000
296583.400,281170.600,711686.400,636308.900,711542.900,712011.200,279897.600,655500.000,0.000
296250.600,280863.900,711667.300,635495.500,711523.500,711991.700,279475.900,654620.100,0.000
296090.800,280725.700,711660.000,634843.100,711515.700,711984.300,279167.500,653807.700,0.000
296349.500,280969.800,711679.800,634904.400,711535.400,712003.900,279346.100,653392.600,0.000
296546.700,281148.800,711693.000,634983.900,711548.400,712016.800,279535.500,653006.400,0.000
296238.200,280859.200,711672.300,634254.000,711527.700,711995.800,279159.800,652164.400,0.000
296020.300,280667.800,711666.300,633520.100,711521.600,711989.800,278796.800,651322.000,0.000
296224.800,280866.300,711684.900,633484.900,711539.900,712008.600,278905.800,650859.400,0.000
296470.100,281090.900,711701.800,633637.900,711556.800,712025.500,279140.800,650511.400,0.000
296241.100,280874.500,711685.500,633053.800,711540.800,712009.500,278868.700,649759.500,0.000
295947.000,280608.800,711666.500,632226.600,711521.800,711990.100,278433.800,648859.400,0.000
296098.100,280757.300,711681.200,632088.500,711536.400,712004.700,278474.200,648339.000,0.000
296379.100,281017.800,711699.600,632285.800,711555.400,712022.900,278734.000,648010.000,0.000
296241.700,280886.300,711691.600,631858.200,711547.000,712015.100,278564.700,647346.900,0.000
295901.400,280573.300,711669.600,630981.400,711525.000,711993.100,278094.700,646423.800,0.000
295979.900,280656.200,711681.600,630720.800,711536.400,712004.300,278052.600,645839.900,0.000
296289.500,280945.400,711704.000,630939.200,711559.300,712027.100,278333.200,645526.200,0.000
296228.100,280881.300,711693.500,630649.900,711548.800,712016.600,278254.800,644932.500,0.000
295866.800,280548.600,711671.200,629771.100,711526.100,711993.800,277779.600,644012.400,0.000
295875.100,280568.300,711681.300,629392.200,711535.600,712003.500,277661.200,643370.800,0.000
296171.600,280849.500,711700.300,629581.000,711554.800,712022.600,277920.800,643037.800,0.000
296218.600,280892.200,711702.100,629462.600,711556.800,712024.500,277966.900,642549.800,0.000
295851.600,280551.600,711677.400,628612.100,711532.100,712000.200,277509.300,641650.400,0.000
295770.200,280485.900,711678.500,628098.400,711532.800,712001.100,277294.500,640932.300,0.000
296059.700,280759.900,711703.000,628250.000,711556.900,712025.300,277532.400,640584.400,0.000
296201.800,280889.900,711712.900,628277.600,711567.000,712034.800,277679.300,640180.800,0.000
295868.800,280578.100,711692.000,627509.600,711546.000,712013.900,277276.300,639333.900,0.000
295692.800,280421.200,711682.800,626862.100,711536.700,712004.500,276963.500,638538.600,0.000
295941.200,280657.700,711700.700,626931.300,711554.300,712022.600,277140.500,638144.500,0.000
296141.100,280839.700,711712.800,627049.700,711566.400,712034.800,277343.800,637787.700,0.000
295861.000,280573.300,711695.100,626391.400,711548.500,712016.900,277011.500,637005.400,0.000
295636.300,280371.000,711686.400,625667.800,711539.800,712008.000,276646.400,636181.100,0.000
295816.400,280545.500,711700.500,625626.500,711553.900,712021.800,276740.800,635720.100,0.000
296080.500,280792.600,711719.400,625827.500,711572.600,712040.600,277002.600,635411.300,0.000
295881.300,280607.200,711707.200,625318.300,711560.100,712028.600,276774.400,634719.900,0.000
295570.300,280325.400,711686.800,624501.600,711539.800,712007.800,276338.900,633844.600,0.000
295692.000,280447.600,711699.800,624354.500,711553.100,712021.000,276365.600,633334.600,0.000
295980.100,280717.800,711719.200,624581.800,711572.400,712040.100,276641.200,633038.600,0.000
295861.400,280601.800,711709.900,624216.200,711562.800,712030.900,276507.700,632426.000,0.000
295528.200,280295.700,711692.400,623378.600,711545.100,712013.300,276061.100,631551.300,0.000
295587.200,280360.300,711704.100,623116.400,711556.400,712024.800,276011.400,630983.300,0.000
295890.300,280642.500,711724.900,623353.600,711577.200,712045.600,276291.500,630691.300,0.000
295838.200,280584.500,711711.500,623111.100,711563.700,712031.800,276230.600,630131.400,0.000
295479.000,280252.300,711687.900,622264.800,711539.800,712007.900,275772.500,629250.800,0.000
295465.600,280251.000,711695.300,621875.700,711547.200,712015.400,275638.900,628618.500,0.000
295767.100,280533.900,711716.900,622086.300,711569.000,712037.000,275904.800,628316.900,0.000
295829.500,280586.300,711720.200,622023.000,711572.100,712040.400,275976.800,627873.900,0.000
295476.000,280258.400,711697.800,621223.300,711549.900,712018.500,275545.300,627024.500,0.000
295369.700,280170.000,711695.100,620695.400,711546.900,712015.300,275309.200,626314.100,0.000
295663.600,280446.700,711718.900,620861.600,711570.900,712039.300,275549.900,625995.600,0.000
295819.400,280587.600,711727.900,620933.600,711580.000,712048.000,275718.000,625631.900,0.000
295496.300,280287.100,711705.700,620208.800,711557.600,712025.900,275334.300,624822.100,0.000
295297.500,280112.600,711695.300,619555.200,711547.100,712015.200,275006.800,624039.800,0.000
295528.900,280333.800,711715.800,619623.400,711567.800,712035.500,275175.400,623662.800,0.000
295759.600,280545.300,711733.600,619797.900,711585.800,712053.600,275414.900,623359.700,0.000
295493.800,280292.900,711712.900,619190.600,711564.600,712032.600,275112.000,622621.200,0.000
295235.600,280056.100,711697.300,618455.400,711548.900,712016.800,274729.700,621803.300,0.000
295426.700,280240.700,711717.200,618433.800,711568.800,712037.000,274841.200,621383.900,0.000
295689.600,280485.300,711733.100,618654.400,711584.700,712052.900,275107.600,621098.500,0.000
295515.400,280318.300,711723.200,618202.000,711574.400,712042.800,274911.600,620456.100,0.000
295210.000,280040.200,711707.600,617409.400,711558.700,712026.800,274486.100,619614.500,0.000
295326.900,280156.200,711719.400,617261.900,711570.900,712038.900,274507.300,619124.200,0.000
295629.600,280436.100,711742.500,617525.600,711593.700,712061.500,274806.100,618871.800,0.000
295532.800,280340.800,711737.000,617222.100,711588.500,712056.300,274708.100,618309.900,0.000
295160.100,279995.500,711706.300,616367.400,711557.000,712025.500,274229.300,617423.000,0.000
295196.800,280036.400,711710.800,616082.400,711561.500,712030.100,274153.800,616853.600,0.000
295526.000,280344.400,711739.800,616358.700,711590.500,712058.700,274465.900,616615.600,0.000
295518.300,280333.400,711736.400,616205.700,711586.300,712055.000,274470.400,616137.800,0.000
295154.300,279995.800,711714.400,615389.700,711564.300,712032.900,274023.000,615288.800,0.000
295118.800,279970.700,711718.800,614994.300,711569.300,712037.500,273874.700,614669.300,0.000
295413.800,280247.300,711740.600,615213.800,711591.300,712059.400,274139.600,614385.100,0.000
295490.700,280313.100,711740.300,615191.800,711591.300,712059.400,274228.800,613974.000,0.000
295141.600,279987.300,711716.900,614421.100,711567.600,712035.300,273807.200,613155.100,0.000
295013.500,279877.200,711710.100,613882.600,711560.300,712028.100,273552.400,612451.000,0.000
295291.400,280142.800,711734.200,614049.600,711584.400,712052.300,273783.000,612144.400,0.000
295458.200,280294.400,711744.500,614157.700,711594.800,712062.400,273967.400,611811.600,0.000
295146.500,279999.400,711723.400,613479.100,711573.300,712040.700,273608.300,611046.600,0.000
294956.500,279826.300,711713.800,612847.900,711563.800,712031.500,273292.000,610301.600,0.000
295189.000,280046.600,711735.100,612926.400,711585.000,712053.100,273462.300,609949.200,0.000
295430.400,280270.500,711753.900,613141.800,711603.900,712071.700,273725.100,609683.800,0.000
295191.700,280046.600,711740.400,612600.400,711589.900,712057.900,273462.400,609002.600,0.000
294910.400,279788.100,711721.100,611854.800,711570.100,712038.300,273057.300,608187.900,0.000
295077.400,279947.500,711738.300,611819.100,711587.500,712055.400,273148.000,607773.100,0.000
295355.400,280205.900,711760.300,612079.200,711609.600,712077.500,273439.000,607531.200,0.000
295192.600,280046.700,711746.600,611672.500,711595.800,712063.800,273264.800,606927.300,0.000
294859.700,279742.600,711722.800,610873.200,711572.100,712040.100,272822.500,606091.800,0.000
294962.600,279849.800,711734.900,610718.200,711584.300,712051.900,272832.000,605612.600,0.000
295276.700,280141.900,711758.100,611008.200,711607.400,712075.000,273144.400,605388.700,0.000
295207.100,280073.000,711752.600,610762.200,711601.800,712069.800,273082.700,604877.100,0.000
294854.800,279748.100,711729.400,609950.400,711578.800,712046.500,272633.300,604043.300,0.000
294879.500,279780.100,711737.000,609665.900,711585.900,712053.500,272551.400,603493.300,0.000
295176.600,280058.900,711758.800,609930.300,711607.200,712075.100,272842.400,603251.300,0.000
295191.900,280068.300,711756.000,609828.500,711604.600,712072.900,272877.600,602818.600,0.000
294834.500,279736.900,711733.600,609037.800,711582.200,712050.000,272443.500,602005.300,0.000
294787.800,279705.400,711738.300,608635.000,711586.800,712054.600,272286.200,601403.400,0.000
295090.800,279989.800,711762.800,608875.900,711611.700,712079.500,272563.500,601157.700,0.000
295181.100,280067.700,711762.800,608898.800,711611.900,712079.500,272673.100,600787.200,0.000
294829.000,279735.700,711736.800,608153.700,711585.700,712053.200,272260.600,599996.300,0.000
294699.200,279622.200,711733.300,607619.500,711582.100,712049.300,272007.800,599319.100,0.000
294969.800,279879.700,711756.100,607788.600,711605.000,712072.400,272235.100,599033.600,0.000
295151.100,280044.700,711765.900,607940.900,711614.400,712082.000,272441.300,598741.900,0.000
294847.100,279756.300,711742.300,607303.100,711590.700,712058.300,272102.000,598015.400,0.000
294634.200,279562.200,711731.300,606658.600,711579.500,712047.300,271770.200,597279.300,0.000
294844.900,279759.700,711747.200,606717.200,711595.200,712063.100,271915.800,596925.600,0.000
295102.300,279996.700,711766.100,606968.300,711614.400,712082.000,272191.000,596694.400,0.000
294879.200,279785.200,711749.900,606478.300,711597.900,712065.800,271951.400,596056.500,0.000
294608.300,279538.400,711737.300,605766.400,711585.000,712052.900,271570.800,595290.100,0.000
294766.900,279694.000,711754.100,605726.100,711601.700,712069.500,271650.500,594887.900,0.000
295054.500,279963.600,711774.500,606018.300,711622.400,712089.900,271953.500,594681.000,0.000
294910.000,279826.000,711762.100,605666.800,711609.900,712077.300,271808.200,594123.100,0.000
294578.700,279518.900,711742.100,604889.300,711589.900,712057.100,271375.800,593318.600,0.000
294662.400,279605.100,711751.900,604728.700,711599.900,712067.000,271370.200,592849.300,0.000
294948.700,279873.200,711767.300,605015.400,711615.100,712082.300,271661.000,592625.800,0.000
294908.800,279832.200,711767.300,604838.100,711614.600,712081.900,271639.300,592173.100,0.000
294553.900,279502.100,711746.300,604053.500,711593.300,712060.800,271198.800,591373.400,0.000
294556.500,279513.800,711750.900,603754.600,711598.200,712065.600,271098.300,590832.100,0.000
294870.000,279810.200,711774.300,604041.400,711621.800,712089.000,271398.300,590623.800,0.000
294916.100,279845.500,711775.600,603999.700,711622.800,712090.300,271467.900,590241.200,0.000
294550.400,279502.100,711750.000,603231.500,711597.300,712064.600,271036.300,589449.900,0.000
294482.800,279448.800,711749.700,602812.200,711597.300,712064.400,270856.200,588851.600,0.000
294757.100,279708.800,711767.600,603032.100,711614.900,712082.100,271104.700,588599.400,0.000
294895.000,279834.600,711777.800,603131.800,711624.800,712092.000,271273.800,588300.300,0.000
294563.400,279523.600,711756.800,602440.400,711603.500,712070.600,270895.000,587559.100,0.000
294410.600,279386.000,711752.700,601895.900,711599.400,712066.700,270628.100,586895.300,0.000
294663.400,279623.300,711774.900,602054.800,711621.600,712088.900,270839.600,586618.100,0.000
294866.300,279808.800,711786.800,602253.800,711633.600,712100.900,271072.000,586368.300,0.000
294587.200,279547.300,711765.300,601675.600,711612.000,712079.100,270765.500,585691.900,0.000
294360.400,279347.100,711756.900,601033.900,711603.500,712070.200,270427.900,584975.100,0.000
294538.300,279520.800,711769.900,601075.600,711616.400,712083.600,270551.500,584623.900,0.000
294791.400,279756.900,711787.100,601343.700,711633.600,712101.300,270831.100,584415.400,0.000
294581.800,279555.800,711771.100,600890.800,711617.700,712084.900,270609.700,583813.100,0.000
294297.300,279294.500,711757.000,600173.100,711602.900,712070.400,270217.300,583058.400,0.000
294433.400,279429.300,711771.400,600114.100,711617.700,712085.100,270276.300,582659.600,0.000
294717.900,279694.200,711787.900,600411.100,711634.300,712101.900,270574.000,582463.300,0.000
294609.300,279588.900,711778.800,600118.800,711624.400,712092.300,270468.000,581956.500,0.000
294284.800,279290.500,711763.100,599366.400,711608.400,712075.900,270053.400,581194.400,0.000
294350.400,279356.100,711772.400,599182.500,711618.300,712085.100,270026.800,580732.500,0.000
294646.200,279628.000,711788.400,599481.600,711634.400,712101.600,270321.200,580535.000,0.000
294624.800,279598.900,711785.400,599339.600,711631.400,712098.700,270313.800,580110.400,0.000
294275.200,279272.200,711765.100,598575.800,711610.400,712078.000,269884.300,579341.000,0.000
294249.700,279253.800,711763.600,598250.000,711608.900,712076.400,269756.000,578795.300,0.000
294561.700,279544.300,711786.500,598539.800,711632.000,712099.300,270051.000,578602.300,0.000
294639.100,279610.800,711791.100,598551.300,711636.600,712104.000,270155.200,578273.900,0.000
294287.400,279280.200,711771.300,597819.900,711616.400,712084.300,269745.600,577528.400,0.000
294196.400,279204.300,711773.400,597381.900,711618.800,712085.800,269548.700,576936.800,0.000
294466.400,279459.700,711790.400,597596.900,711635.900,712102.800,269789.900,576698.100,0.000
294610.300,279591.100,711795.400,597724.400,711641.100,712107.800,269967.600,576422.900,0.000
294291.900,279293.900,711775.300,597075.500,711620.800,712087.600,269614.700,575724.600,0.000
294123.300,279142.200,711768.100,596519.200,711613.300,712080.000,269335.100,575070.600,0.000
294360.300,279365.200,711785.900,596665.200,711630.800,712097.800,269529.800,574800.200,0.000
294582.900,279568.600,711801.900,596904.400,711646.900,712113.800,269784.300,574592.800,0.000
294328.300,279327.100,711788.000,596378.800,711632.900,712099.700,269512.800,573969.900,0.000
294085.800,279106.300,711777.600,595729.000,711622.200,712089.000,269163.700,573266.300,0.000
294263.900,279278.200,711791.900,595766.200,711636.700,712103.200,269282.900,572932.400,0.000
294537.600,279535.200,711810.600,596072.400,711655.600,712122.100,269583.300,572761.800,0.000
294340.100,279347.800,711791.600,595663.400,711636.700,712103.000,269383.300,572195.200,0.000
294038.800,279071.900,711775.600,594948.100,711620.800,712087.100,268986.000,571458.600,0.000
294154.700,279191.100,711786.400,594874.600,711631.600,712097.600,269031.200,571069.300,0.000
294449.300,279466.200,711805.000,595197.600,711649.700,712116.100,269343.100,570907.500,0.000
294341.700,279358.700,711794.600,594938.800,711639.500,712105.800,269247.500,570425.900,0.000
294014.300,279057.400,711777.400,594193.400,711622.400,712088.900,268832.000,569680.800,0.000
294061.200,279106.200,711784.300,593989.400,711629.100,712095.400,268788.300,569220.000,0.000
294367.500,279390.700,711805.600,594314.500,711650.300,712116.600,269102.200,569056.900,0.000
294364.400,279380.500,711801.900,594226.300,711646.500,712113.100,269127.300,568677.600,0.000
294017.500,279056.600,711780.500,593485.700,711624.900,712091.300,268707.000,567938.000,0.000
293989.300,279039.500,711783.400,593162.500,711627.800,712094.100,268579.800,567418.800,0.000
294292.300,279324.200,711806.900,593457.700,711651.500,712117.800,268873.000,567245.100,0.000
294384.400,279403.300,711812.400,593518.300,711656.900,712122.900,268999.900,566954.000,0.000
294038.500,279076.800,711789.400,592817.100,711633.600,712099.700,268601.200,566236.700,0.000
293918.600,278973.300,711783.400,592355.300,711627.600,712093.400,268377.000,565640.300,0.000
294186.300,279227.900,711800.600,592581.400,711645.000,712110.900,268622.000,565426.900,0.000
294351.400,279376.600,711809.300,592752.800,711653.400,712119.400,268823.300,565196.600,0.000
294048.900,279093.400,711791.200,592145.400,711635.300,712100.900,268492.000,564541.400,0.000
293858.900,278921.900,711782.800,591574.500,711626.600,712092.300,268192.600,563892.300,0.000
294085.800,279133.000,711801.500,591709.600,711645.500,712110.900,268375.000,563629.300,0.000
294321.300,279345.200,711817.200,591973.900,711661.200,712126.800,268643.100,563452.400,0.000
294081.100,279116.900,711799.600,591482.100,711643.200,712109.400,268389.800,562864.700,0.000
293816.800,278876.200,711785.400,590813.400,711628.300,712094.500,268023.100,562166.400,0.000
293998.200,279052.000,711803.700,590850.300,711646.500,712112.500,268145.300,561858.900,0.000
294268.000,279303.500,711819.300,591157.900,711662.100,712128.400,268444.800,561701.700,0.000
294102.800,279146.300,711807.300,590806.900,711650.300,712116.400,268289.500,561192.200,0.000
293796.100,278866.000,711791.300,590092.000,711634.300,712100.100,267891.300,560478.500,0.000
293915.600,278984.700,711805.400,590013.900,711648.900,712114.200,267933.400,560112.400,0.000
294206.900,279254.800,711822.400,590340.600,711665.600,712131.400,268241.200,559962.400,0.000
294112.100,279160.100,711809.900,590122.900,711652.900,712118.600,268168.700,559518.900,0.000
293772.900,278846.600,711788.800,589381.800,711631.400,712097.000,267746.600,558793.800,0.000
293796.200,278874.300,711794.600,589159.300,711637.400,712103.200,267683.100,558340.600,0.000
294107.200,279167.400,711817.100,589487.100,711660.100,712125.600,267993.800,558195.900,0.000
294131.300,279185.000,711818.400,589446.400,711661.400,712126.700,268050.300,557861.800,0.000
293778.400,278855.900,711795.700,588718.100,711638.600,712104.100,267633.100,557143.800,0.000
293731.600,278818.800,711796.300,588371.300,711639.400,712104.500,267485.400,556629.600,0.000
294029.700,279102.000,711818.900,588661.500,711661.600,712126.500,267772.800,556470.600,0.000
294144.800,279206.800,711827.400,588764.600,711669.800,712135.000,267927.200,556218.800,0.000
293818.700,278901.300,711808.900,588102.900,711650.900,712116.000,267553.200,555545.800,0.000
293678.600,278778.200,711801.200,587622.200,711643.400,712108.600,267307.500,554956.200,0.000
293937.800,279022.600,711820.300,587834.300,711663.100,712128.300,267538.000,554750.900,0.000
294120.300,279185.700,711829.100,588040.800,711671.700,712137.000,267758.500,554548.900,0.000
293813.300,278894.700,711805.300,587455.300,711647.600,712112.700,267430.100,553909.300,0.000
293600.700,278703.200,711792.900,586864.100,711635.100,712099.800,267109.100,553261.900,0.000
293838.800,278932.600,711816.800,587008.500,711658.400,712123.600,267301.900,553034.800,0.000
294090.700,279164.400,711834.400,587308.100,711676.400,712140.800,267594.400,552895.400,0.000
293861.100,278945.400,711819.300,586859.300,711661.300,712125.400,267365.000,552341.900,0.000
293591.400,278699.300,711806.800,586197.400,711648.900,712112.900,266998.200,551665.600,0.000
293738.600,278844.400,711817.400,586199.400,711659.800,712123.600,267081.500,551341.000,0.000
294021.400,279109.100,711834.200,586536.900,711676.400,712140.800,267392.900,551214.900,0.000
293864.800,278959.900,711819.800,586227.200,711661.900,712126.000,267251.300,550733.700,0.000
293545.600,278666.700,711800.900,585516.300,711642.600,712106.800,266846.100,550031.700,0.000
293638.700,278758.500,711814.300,585413.900,711655.800,712119.400,266866.800,549662.100,0.000
293948.200,279045.300,711832.800,585765.700,711674.500,712138.100,267192.200,549548.400,0.000
293904.600,278998.900,711828.400,585629.400,711670.400,712133.600,267175.700,549175.900,0.000
293551.300,278667.600,711806.600,584892.600,711647.900,712111.300,266745.300,548461.900,0.000
293566.000,278688.900,711813.100,584660.100,711654.400,712117.900,266673.800,548023.900,0.000
293872.300,278979.300,711836.400,584996.300,711677.900,712141.400,266991.300,547903.900,0.000
293910.200,279009.800,711835.900,585000.400,711677.300,712140.900,267071.900,547606.900,0.000
293565.100,278689.500,711815.800,584304.500,711657.600,712120.900,266674.900,546929.100,0.000
293493.000,278629.900,711815.100,583936.800,711656.800,712120.200,266506.800,546418.000,0.000
293760.800,278880.300,711831.700,584206.300,711672.900,712136.300,266769.300,546250.300,0.000
293884.900,278991.300,711838.000,584337.100,711679.500,712142.700,266939.200,546025.900,0.000
293561.400,278685.900,711815.600,583697.000,711656.900,712120.000,266578.200,545377.300,0.000
293426.400,278567.800,711813.100,583221.400,711654.300,712116.700,266339.700,544813.100,0.000
293673.200,278801.300,711831.700,583424.000,711672.900,712135.600,266558.800,544612.900,0.000
293879.200,278990.000,711844.700,583673.600,711686.100,712149.300,266810.900,544457.300,0.000
293609.300,278734.000,711826.500,583147.100,711667.900,712130.600,266524.400,543877.500,0.000
293385.300,278530.400,711813.900,582550.900,711654.800,712117.600,266197.100,543245.400,0.000
293582.000,278717.200,711829.400,582654.800,711670.300,712133.100,266349.100,542993.000,0.000
293836.300,278955.000,711843.000,582966.900,711683.900,712146.600,266640.800,542865.600,0.000
293634.700,278762.200,711828.500,582570.900,711669.200,712131.800,266443.300,542358.300,0.000
293354.800,278505.800,711815.400,581908.300,711655.900,712117.900,266070.600,541697.300,0.000
293503.300,278650.500,711830.600,581912.300,711671.400,712133.700,266159.700,541399.300,0.000
293794.600,278921.300,711849.400,582268.900,711690.500,712152.800,266484.200,541299.800,0.000
293664.900,278794.300,711836.600,582007.400,711677.300,712139.500,266377.500,540865.200,0.000
293318.600,278473.700,711812.700,581273.500,711653.100,712115.200,265945.300,540158.600,0.000
293402.700,278561.700,711824.800,581153.900,711665.400,712127.100,265949.000,539798.300,0.000
293718.000,278854.900,711847.800,581521.700,711688.800,712150.200,266283.100,539713.200,0.000
293689.500,278821.900,711843.800,581421.300,711684.400,712145.800,266288.700,539370.800,0.000
293338.800,278495.900,711822.100,580695.700,711662.400,712124.000,265866.300,538680.200,0.000
293328.800,278491.500,711824.800,580426.400,711664.800,712126.700,265765.100,538233.900,0.000
293637.700,278779.000,711845.000,580760.900,711685.000,712146.600,266072.700,538125.700,0.000
293708.300,278840.800,711848.900,580815.800,711689.100,712150.200,266181.500,537874.400,0.000
293356.900,278508.200,711825.300,580130.300,711665.400,712126.400,265777.500,537206.500,0.000
293264.400,278426.500,711820.500,579737.100,711660.600,712121.400,265587.700,536692.100,0.000
293556.100,278700.400,711844.400,580023.800,711685.000,712145.800,265867.200,536561.300,0.000
293702.300,278834.000,711853.100,580199.100,711693.500,712154.100,266061.300,536374.600,0.000
293373.500,278525.600,711829.000,579582.800,711669.200,712129.900,265706.300,535747.800,0.000
293218.100,278389.900,711824.900,579087.100,711665.000,712125.600,265449.200,535187.100,0.000
293462.900,278623.800,711845.200,579283.900,711684.900,712145.200,265662.400,535003.900,0.000
293684.500,278828.000,711859.400,579563.000,711699.000,712159.500,265928.400,534876.900,0.000
293406.200,278560.500,711837.800,579054.700,711676.900,712137.300,265644.900,534311.600,0.000
293181.900,278357.400,711830.600,578462.800,711669.800,712129.200,265322.900,533704.000,0.000
293370.100,278539.500,711847.900,578553.800,711687.200,712145.900,265465.600,533466.100,0.000
293616.200,278766.200,711858.100,578871.100,711696.900,712155.600,265752.300,533350.800,0.000
293437.700,278595.300,711846.900,578526.800,711685.500,712143.000,265585.900,532887.000,0.000
293152.600,278333.700,711832.100,577865.800,711670.000,712126.300,265210.100,532242.000,0.000
293275.700,278454.600,711843.900,577839.000,711681.300,712136.900,265269.200,531935.100,0.000
293563.100,278719.400,711861.800,578196.800,711699.200,712154.300,265586.800,531845.900,0.000
293462.700,278618.900,711851.500,577985.400,711689.100,712143.300,265509.200,531453.400,0.000
293132.300,278313.300,711832.300,577279.500,711669.200,712122.100,265098.800,530787.000,0.000
293193.000,278378.900,711842.800,577134.700,711679.300,712131.600,265081.500,530424.100,0.000
293513.800,278677.400,711865.600,577512.300,711701.800,712153.800,265417.700,530354.900,0.000
293511.800,278668.000,711862.700,577465.900,711698.900,712150.100,265454.800,530060.200,0.000
293155.500,278335.800,711840.300,576759.800,711676.100,712126.100,265038.900,529397.600,0.000
293122.800,278311.700,711842.800,576472.000,711678.300,712127.300,264917.900,528954.800,0.000
293413.300,278586.900,711860.600,576796.100,711695.700,712144.400,265210.900,528848.400,0.000
293501.800,278665.300,711862.300,576887.600,711696.800,712144.900,265341.900,528627.400,0.000
293158.400,278341.600,711839.700,576225.900,711673.600,712120.800,264955.700,527989.400,0.000
293063.900,278259.200,711838.900,575823.500,711672.400,712118.400,264762.200,527492.000,0.000
293320.900,278499.300,711855.200,576074.600,711688.400,712133.900,265007.500,527343.700,0.000
293499.100,278662.300,711866.200,576292.300,711699.800,712144.100,265231.700,527197.500,0.000
293198.000,278373.400,711846.600,575722.800,711680.000,712122.900,264906.000,526616.000,0.000
292995.000,278190.600,711831.400,575183.600,711664.000,712106.300,264607.600,526034.000,0.000
293228.700,278414.000,711850.400,575370.300,711682.800,712124.400,264814.200,525862.400,0.000
293468.200,278634.100,711869.800,575679.900,711701.800,712142.800,265102.300,525772.400,0.000
293223.200,278398.800,711852.400,575224.900,711683.900,712123.800,264859.300,525261.400,0.000
292970.400,278171.000,711838.400,574613.900,711669.800,712108.000,264515.400,524653.900,0.000
293146.200,278340.900,711852.900,574686.200,711683.900,712121.300,264639.400,524415.600,0.000
293425.500,278599.300,711871.700,575044.800,711702.200,712139.600,264960.700,524349.700,0.000
293250.300,278430.500,711858.700,574727.100,711688.600,712124.600,264809.400,523912.200,0.000
292939.700,278145.700,711839.300,574049.100,711668.900,712103.400,264415.300,523264.700,0.000
293052.800,278258.400,711851.700,574006.800,711681.000,712115.200,264463.100,522965.800,0.000
293348.300,278531.000,711869.900,574374.700,711699.000,712132.300,264783.700,522897.800,0.000
293276.600,278460.800,711862.700,574214.400,711691.400,712123.800,264739.700,522552.300,0.000
292923.600,278131.100,711840.400,573501.800,711668.300,712099.300,264316.500,521891.000,0.000
292965.400,278176.400,711848.400,573332.600,711676.600,712106.600,264277.800,521529.300,0.000
293278.900,278470.400,711871.600,573705.800,711699.100,712128.900,264608.900,521472.800,0.000
293299.400,278485.200,711870.800,573698.300,711697.900,712126.400,264672.200,521213.500,0.000
292945.300,278154.300,711846.900,573005.900,711673.900,712100.800,264262.600,520566.700,0.000
292910.300,278128.800,711851.900,572711.700,711678.500,712104.400,264143.400,520140.200,0.000
293208.600,278407.600,711875.600,573038.100,711701.800,712126.900,264443.800,520057.200,0.000
293307.000,278492.300,711878.100,573157.100,711704.100,712128.100,264589.900,519863.700,0.000
292976.000,278181.900,711854.900,572525.800,711679.900,712103.200,264221.300,519256.600,0.000
292853.800,278074.500,711852.300,572102.100,711676.900,712098.800,264007.400,518759.100,0.000
293117.100,278322.900,711874.900,572363.000,711699.300,712120.200,264258.700,518637.100,0.000
293297.700,278484.500,711886.400,572608.200,711710.900,712131.000,264492.300,518515.300,0.000
293003.800,278208.300,711865.400,572067.900,711689.500,712107.900,264181.400,517962.000,0.000
292801.300,278027.200,711855.700,571531.300,711678.900,712095.900,263884.200,517401.400,0.000
293021.000,278236.600,711874.600,571698.400,711697.300,712113.200,264071.300,517229.600,0.000
293266.200,278464.700,711890.100,572025.900,711712.600,712128.400,264367.200,517158.400,0.000
293038.400,278250.400,711870.600,571604.900,711692.600,712106.900,264139.600,516673.900,0.000
292760.800,277996.500,711849.400,570967.200,711671.400,712083.700,263767.100,516054.900,0.000
292928.900,278159.600,711864.400,571028.800,711685.800,712097.000,263886.700,515830.400,0.000
293213.400,278423.500,711884.300,571400.800,711705.300,712115.800,264215.500,515785.800,0.000
293072.000,278286.900,711873.900,571134.300,711694.400,712103.400,264095.200,515391.700,0.000
292754.500,277993.500,711854.200,570457.900,711674.600,712081.800,263697.800,514764.200,0.000
292837.100,278074.300,711860.400,570377.300,711680.300,712086.600,263712.700,514454.600,0.000
293141.600,278359.300,711881.300,570761.400,711700.900,712106.600,264044.800,514411.400,0.000
293088.100,278301.900,711876.600,570645.300,711696.500,712100.300,264028.900,514102.600,0.000
292744.200,277982.100,711854.800,569949.800,711673.400,712075.600,263618.500,513468.200,0.000
292760.000,278005.100,711861.900,569750.600,711680.100,712080.900,263555.100,513098.900,0.000
293073.900,278299.300,711885.400,570124.400,711703.600,712103.800,263883.700,513055.100,0.000
293112.800,278328.700,711883.700,570153.900,711701.800,712100.600,263967.500,512827.600,0.000
292773.500,278011.300,711863.600,569494.300,711680.800,712077.800,263580.600,512220.000,0.000
292708.400,277956.100,711864.600,569165.500,711681.100,712076.400,263427.500,511782.400,0.000
292996.100,278229.000,711884.400,569479.600,711700.900,712095.400,263713.100,511700.500,0.000
293122.400,278341.800,711889.100,569643.600,711705.100,712098.400,263888.700,511545.800,0.000
292798.000,278034.700,711867.000,569039.900,711682.200,712073.500,263535.600,510967.700,0.000
292660.400,277915.000,711863.700,568597.600,711678.100,712068.300,263305.100,510473.100,0.000
292917.200,278156.200,711882.300,568840.600,711696.900,712085.600,263542.400,510353.800,0.000
293115.700,278334.800,711893.800,569108.400,711708.100,712095.600,263789.600,510259.900,0.000
292837.100,278068.100,711875.900,568604.300,711689.500,712075.100,263504.600,509743.900,0.000
292622.700,277873.300,711864.000,568053.800,711677.300,712060.400,263197.100,509193.400,0.000
292828.400,278071.900,711880.200,568197.200,711693.000,712075.400,263363.600,509020.600,0.000
293079.500,278308.300,711895.900,568539.600,711708.600,712089.400,263664.100,508968.700,0.000
292869.000,278109.400,711879.400,568162.300,711691.900,712070.600,263464.600,508523.300,0.000
292589.000,277853.500,711864.800,567531.800,711676.400,712053.200,263099.200,507929.900,0.000
292731.300,277991.300,711877.700,567562.600,711688.900,712063.900,263189.700,507695.200,0.000
293028.800,278267.200,711898.100,567954.900,711709.000,712082.700,263527.900,507673.900,0.000
292907.100,278148.200,711887.200,567732.300,711698.200,712069.400,263436.500,507316.300,0.000
292591.300,277855.300,711867.900,567061.600,711678.300,712046.700,263043.700,506707.600,0.000
292670.000,277933.600,711877.900,566972.900,711687.600,712053.600,263053.600,506410.300,0.000
292978.200,278221.900,711900.700,567366.700,711710.000,712074.300,263389.700,506386.300,0.000
292943.200,278182.900,711894.000,567288.800,711702.900,712065.200,263396.600,506108.300,0.000
292605.200,277868.500,711873.300,566612.300,711681.800,712039.800,262998.600,505500.600,0.000
292605.400,277876.000,711878.400,566394.400,711687.000,712040.900,262920.000,505135.200,0.000
292904.500,278157.700,711896.400,566754.400,711704.900,712056.300,263231.700,505089.000,0.000
292964.500,278210.500,711896.700,566826.700,711704.600,712051.700,263339.500,504894.500,0.000
292633.400,277900.400,711877.500,566193.900,711684.800,712022.100,262964.300,504313.700,0.000
292549.800,277826.300,711875.900,565847.500,711682.500,712000.400,262791.800,503875.900,0.000
292827.100,278086.500,711895.900,566155.600,711701.100,711944.500,263065.700,503801.000,0.000
292981.400,278226.600,711905.500,566367.700,711704.500,711618.100,263274.900,503691.900,0.000
292672.800,277936.300,711885.800,565801.200,711678.900,710840.100,262944.300,503152.900,0.000
292510.800,277794.200,711876.400,565332.100,711667.900,710034.900,262688.800,502655.100,0.000
292742.400,278014.200,711891.800,565549.600,711682.800,709518.900,262900.200,502528.800,0.000
292959.300,278211.800,711905.000,565850.400,711695.800,709036.800,263168.300,502466.000,0.000
292695.300,277959.700,711883.600,565376.600,711673.600,708122.000,262896.400,501973.200,0.000
292465.200,277748.500,711871.800,564814.300,711661.100,707175.900,262576.700,501426.600,0.000
292666.900,277945.100,711890.700,564953.700,711679.400,706615.200,262740.500,501265.900,0.000
292931.100,278189.500,711906.600,565319.600,711694.900,706178.900,263052.000,501235.700,0.000
292750.800,278016.700,711895.300,564996.800,711682.800,705401.300,262886.800,500833.400,0.000
292462.100,277749.000,711877.000,564361.600,711664.000,704486.300,262513.800,500248.800,0.000
292595.900,277876.800,711890.400,564374.900,711677.000,703910.000,262590.000,500018.300,0.000
292894.400,278153.200,711910.300,564771.200,711696.800,703525.800,262928.600,500009.800,0.000
292785.100,278046.700,711897.600,564581.900,711683.700,702853.300,262856.200,499680.200,0.000
292445.500,277730.300,711874.500,563897.100,711659.800,701948.900,262444.400,499068.000,0.000
292506.100,277793.400,711884.300,563782.000,711669.100,701335.200,262432.700,498770.500,0.000
292817.400,278082.900,711907.800,564175.100,711692.200,700961.400,262766.500,498758.900,0.000
292799.900,278059.200,711900.300,564131.500,711683.900,700372.000,262790.600,498509.000,0.000
292455.500,277738.100,711875.800,563456.400,711659.400,699491.100,262387.800,497910.400,0.000
292440.800,277732.600,711881.100,563216.700,711664.200,698832.100,262295.000,497549.100,0.000
292743.200,278012.100,711903.200,563577.100,711686.000,698447.700,262604.500,497520.200,0.000
292828.500,278082.800,711906.600,563686.600,711688.900,697945.100,262738.100,497362.300,0.000
292483.800,277757.700,711882.000,563050.400,711664.000,697082.000,262357.500,496786.600,0.000
292374.300,277665.100,711878.300,562671.600,711659.800,696354.900,262164.300,496345.600,0.000
292649.000,277925.300,711899.400,562967.900,711680.600,695945.300,262433.500,496279.400,0.000
292807.200,278067.600,711908.400,563196.400,711689.400,695499.300,262647.800,496185.900,0.000
292505.600,277782.200,711888.100,562651.100,711668.700,694685.000,262326.300,495668.100,0.000
292321.000,277616.400,711877.700,562157.600,711657.900,693905.800,262050.700,495168.000,0.000
292559.100,277847.000,711899.300,562374.500,711679.400,693466.600,262267.100,495062.700,0.000
292793.000,278062.500,711915.300,562702.300,711695.600,693078.800,262553.800,495027.500,0.000
292534.200,277812.800,711894.900,562256.300,711674.800,692306.300,262295.100,494555.600,0.000
292293.400,277590.300,711883.300,561678.400,711662.700,691491.100,261961.900,494012.700,0.000
292472.300,277763.900,711896.100,561784.100,711675.400,690999.100,262097.400,493842.700,0.000
292751.400,278022.900,711914.400,562168.300,711694.000,690638.600,262421.100,493836.300,0.000
292586.200,277860.900,711901.900,561879.800,711681.400,689950.900,262274.100,493460.700,0.000
292292.500,277586.000,711883.800,561245.600,711662.900,689113.200,261898.600,492891.900,0.000
292426.000,277718.000,711900.100,561253.300,711679.100,688589.500,261973.100,492678.700,0.000
292712.900,277982.600,711914.600,561644.100,711693.400,688222.800,262295.000,492667.700,0.000
292617.900,277885.000,711900.600,561489.400,711679.100,687595.100,262237.500,492364.300,0.000
292278.000,277570.600,711878.400,560818.900,711656.700,686738.000,261837.400,491779.700,0.000
292330.800,277629.800,711889.800,560691.600,711660.300,686154.400,261821.000,491491.400,0.000
292637.100,277915.200,711909.400,561079.900,711667.800,685714.300,262146.700,491484.100,0.000
292648.400,277915.300,711906.700,561085.300,711681.000,685056.600,262200.600,491270.600,0.000
292297.300,277584.600,711883.000,560421.800,711660.900,684404.600,261793.400,490684.400,0.000
292247.800,277543.300,711883.500,560142.900,711661.300,683994.600,261661.700,490304.500,0.000
292543.800,277821.300,711906.500,560498.000,711684.800,683882.100,261966.500,490282.500,0.000
292658.900,277924.200,711911.600,560657.300,711690.300,683678.800,262132.200,490162.500,0.000
292324.900,277608.200,711888.700,560045.900,711667.100,683099.100,261761.100,489609.400,0.000
292184.100,277480.900,711879.300,559627.300,711657.500,682610.900,261526.400,489146.800,0.000
292443.300,277725.900,711895.600,559904.800,711673.900,682454.900,261773.700,489076.400,0.000
292628.300,277894.900,711906.300,560169.900,711684.300,682298.300,262013.800,489016.100,0.000
292350.000,277630.100,711890.900,559669.400,711668.900,681779.600,261724.300,488535.600,0.000
292146.000,277441.700,711879.800,559158.700,711657.900,681252.400,261430.900,488030.800,0.000
292368.500,277653.200,711897.000,559353.700,711675.100,681060.000,261624.100,487918.100,0.000
292609.100,277874.600,711913.100,559699.300,711691.300,680938.700,261919.400,487900.200,0.000
292365.600,277642.500,711893.400,559293.300,711671.600,680447.600,261689.900,487463.300,0.000
292100.500,277401.300,711876.400,558695.500,711654.400,679876.000,261336.000,486913.000,0.000
292276.900,277573.200,711894.100,558793.300,711671.800,679645.300,261467.800,486753.500,0.000
292558.300,277835.000,711911.700,559185.100,711690.100,679543.700,261796.300,486761.500,0.000
292408.100,277691.400,711898.700,558933.200,711677.100,679126.900,261673.500,486414.900,0.000
292096.300,277401.200,711880.800,558287.400,711658.900,678529.600,261284.100,485843.400,0.000
292197.500,277502.200,711891.500,558256.800,711669.400,678234.600,261327.100,485609.900,0.000
292490.800,277776.600,711909.600,558661.100,711687.600,678135.900,261661.800,485621.400,0.000
292438.800,277720.900,711901.900,558569.600,711680.100,677801.100,261651.700,485370.800,0.000
292104.100,277406.300,711879.300,557903.600,711657.600,677196.300,261248.500,484795.900,0.000
292126.800,277434.000,711887.200,557736.400,711665.200,676837.900,261195.100,484488.300,0.000
292423.800,277712.900,711909.300,558124.300,711687.000,676734.100,261518.500,484490.700,0.000
292467.700,277749.400,711910.900,558183.800,711688.600,676474.300,261610.900,484324.700,0.000
292119.300,277421.200,711886.400,557538.000,711663.800,675873.100,261215.800,483761.900,0.000
292055.700,277368.900,711886.000,557234.900,711664.000,675444.800,261068.700,483379.800,0.000
292355.300,277650.500,711909.800,557588.200,711687.300,675328.800,261372.000,483366.600,0.000
292485.500,277768.500,711916.300,557779.300,711693.500,675133.500,261555.900,483275.300,0.000
292163.900,277463.900,711894.100,557201.700,711671.400,674565.100,261209.000,482758.000,0.000
292023.200,277337.700,711886.400,556777.000,711663.800,674075.200,260974.000,482310.300,0.000
292290.000,277589.100,711909.900,557055.300,711687.600,673923.200,261226.000,482256.900,0.000
292498.400,277780.100,711924.400,557356.500,711702.000,673781.800,261489.400,482228.200,0.000
292195.800,277490.400,711897.000,556846.700,711674.500,673234.500,261180.200,481738.300,0.000
291988.700,277303.000,711886.900,556326.400,711664.200,672707.800,260882.900,481244.600,0.000
292196.200,277505.900,711903.000,556501.100,711680.800,672503.100,261060.000,481129.100,0.000
292436.600,277725.300,711916.700,556858.100,711694.500,672381.000,261357.600,481124.900,0.000
292226.400,277523.700,711900.500,556506.200,711677.900,671918.600,261164.100,480737.300,0.000
291961.400,277284.900,711886.400,555916.800,711664.400,671358.300,260817.600,480213.300,0.000
292112.400,277433.400,711900.900,555983.800,711678.900,671106.300,260923.100,480042.600,0.000
292398.800,277699.600,711919.600,556387.600,711697.600,671007.100,261253.700,480065.700,0.000
292279.700,277583.800,711910.300,556186.600,711688.000,670618.800,261166.000,479766.500,0.000
291960.100,277289.100,711892.100,555540.600,711669.600,670024.100,260776.900,479211.900,0.000
292028.100,277357.700,711897.900,555466.400,711675.900,669700.400,260780.100,478960.800,0.000
292328.700,277639.100,711917.900,555875.200,711695.900,669601.000,261113.200,478984.600,0.000
292294.900,277602.500,711913.400,555824.300,711691.200,669283.600,261125.300,478764.300,0.000
291948.800,277280.200,711892.800,555167.800,711670.800,668681.600,260723.800,478203.400,0.000
291953.500,277293.300,711897.800,554976.800,711675.400,668308.200,260650.000,477892.300,0.000
292255.600,277577.700,711920.400,555365.900,711698.400,668203.600,260971.600,477905.700,0.000
292312.700,277624.000,711919.800,555456.600,711698.000,667959.500,261086.700,477767.300,0.000
291975.600,277305.800,711895.700,554829.300,711674.300,667370.400,260704.100,477226.400,0.000
291899.800,277239.500,711894.100,554508.100,711672.900,666933.000,260540.700,476843.000,0.000
292172.200,277494.300,711912.100,554831.300,711690.800,666791.600,260813.800,476814.500,0.000
292310.800,277617.800,711916.500,555039.800,711694.900,666601.100,261005.300,476736.800,0.000
292001.300,277325.500,711895.900,554484.600,711674.100,666047.400,260673.800,476241.400,0.000
291860.300,277200.300,711892.900,554058.600,711671.400,665571.300,260441.500,475813.100,0.000
292095.400,277423.300,711910.900,554305.900,711689.100,665395.900,260659.700,475743.000,0.000
292306.400,277618.900,711923.800,554626.600,711701.600,665260.400,260930.800,475731.800,0.000
292049.500,277373.700,711905.500,554185.900,711683.700,664760.400,260673.700,475303.100,0.000
291822.100,277164.900,711892.600,553649.700,711671.200,664222.300,260358.000,474810.000,0.000
292022.600,277357.400,711911.100,553810.300,711689.500,664017.100,260528.500,474706.300,0.000
292287.600,277604.200,711928.200,554193.900,711706.300,663912.400,260847.500,474734.800,0.000
292088.600,277414.600,711910.200,553867.900,711688.800,663457.600,260665.700,474367.900,0.000
291809.000,277155.900,711896.100,553263.400,711674.400,662888.900,260304.000,473845.600,0.000
291951.700,277294.500,711911.100,553310.800,711689.500,662632.500,260396.400,473678.600,0.000
292255.400,277580.400,711932.400,553739.000,711710.700,662555.200,260748.000,473732.600,0.000
292134.400,277461.900,711918.600,553556.700,711697.100,662167.900,260663.600,473444.200,0.000
291798.600,277147.900,711895.800,552896.200,711674.100,661559.600,260252.500,472885.000,0.000
291857.100,277208.000,711903.900,552805.600,711682.100,661234.300,260244.800,472638.200,0.000
292177.400,277506.500,711927.100,553229.400,711705.600,661154.800,260592.000,472685.900,0.000
292183.600,277505.000,711927.800,553230.100,711706.300,660873.600,260645.100,472510.700,0.000
291837.700,277180.200,711905.300,552579.300,711683.400,660277.700,260245.800,471964.800,0.000
291806.200,277155.900,711903.900,552344.400,711682.200,659881.200,260138.000,471636.000,0.000
292099.900,277434.100,711925.300,552724.300,711703.700,659775.500,260452.300,471655.200,0.000
292179.400,277501.200,711928.700,552852.000,711707.100,659548.300,260586.100,471544.200,0.000
291845.100,277187.200,711907.400,552246.400,711686.100,658971.800,260216.600,471028.000,0.000
291754.100,277107.500,711906.100,551906.600,711684.800,658534.000,260040.000,470648.500,0.000
292036.900,277375.600,711929.000,552234.200,711707.300,658408.500,260320.800,470639.800,0.000
292189.900,277514.200,711934.200,552471.300,711712.900,658232.500,260532.000,470584.800,0.000
291891.800,277230.600,711914.700,551945.800,711693.600,657697.000,260218.000,470114.500,0.000
291699.800,277056.500,711901.200,551463.100,711679.900,657178.400,259935.100,469647.800,0.000
291934.700,277279.100,711918.600,551697.900,711697.400,657004.800,260150.600,469585.900,0.000
292161.300,277487.200,711932.000,552041.100,711711.100,656883.400,260435.800,469597.200,0.000
291913.300,277252.000,711912.900,551625.400,711692.000,656395.300,260192.900,469190.100,0.000
291680.500,277041.800,711901.100,551080.300,711680.100,655863.300,259873.700,468707.500,0.000
291870.600,277223.900,711919.900,551217.300,711698.800,655656.100,260026.900,468597.700,0.000
292154.300,277483.300,711941.600,551626.800,711720.600,655575.000,260361.600,468647.800,0.000
291978.600,277310.700,711925.000,551343.900,711704.000,655144.700,260204.500,468310.100,0.000
291675.300,277029.800,711902.900,550718.300,711681.900,654564.500,259823.300,467780.100,0.000
291808.100,277159.900,711917.500,550744.700,711696.800,654307.800,259902.000,467614.400,0.000
292099.200,277426.600,711936.000,551159.900,711715.600,654217.400,260234.600,467658.300,0.000
292009.900,277337.900,711928.100,551033.000,711707.500,653867.100,260187.300,467409.500,0.000
291679.100,277031.900,711907.600,550387.100,711686.600,653274.100,259789.400,466870.900,0.000
291736.700,277094.500,711918.200,550290.600,711697.100,652958.300,259781.600,466636.800,0.000
292040.800,277379.400,711938.900,550704.900,711717.700,652872.900,260117.500,466686.200,0.000
292041.100,277372.000,711933.900,550720.600,711713.200,652591.700,260169.200,466517.000,0.000
291694.800,277045.300,711910.500,550079.500,711689.800,652000.400,259770.900,465985.300,0.000
291649.400,277009.200,711907.600,549826.500,711687.000,651600.100,259647.100,465657.400,0.000
291953.500,277297.200,711932.700,550214.100,711712.300,651510.300,259966.500,465695.300,0.000
292063.500,277395.300,711940.600,550390.800,711720.400,651318.300,260137.300,465627.800,0.000
291732.400,277081.600,711916.800,549801.900,711696.100,650750.300,259773.100,465124.900,0.000
291622.300,276984.500,711911.500,549432.400,711691.000,650300.600,259571.600,464734.000,0.000
291876.800,277222.800,711931.000,549729.000,711710.600,650159.600,259822.800,464707.400,0.000
292047.600,277378.100,711940.200,550000.800,711719.200,650008.100,260053.100,464683.800,0.000
291765.900,277113.500,711922.600,549511.400,711701.800,649497.400,259763.800,464249.000,0.000
291573.100,276940.600,711912.500,549028.700,711691.900,648993.300,259485.600,463801.700,0.000
291802.500,277159.800,711929.600,549249.300,711709.300,648825.900,259694.800,463746.400,0.000
292039.300,277378.300,711943.400,549607.300,711723.100,648721.700,259992.600,463774.000,0.000
291807.800,277156.400,711926.500,549226.300,711705.900,648258.600,259773.700,463395.600,0.000
291548.800,276916.800,711912.400,548656.400,711691.900,647712.200,259430.300,462902.300,0.000
291710.400,277070.300,711923.300,548758.500,711702.800,647480.200,259549.500,462773.500,0.000
291999.500,277341.700,711943.900,549180.900,711723.400,647409.100,259891.200,462839.100,0.000
291848.600,277196.000,711931.400,548947.300,711710.600,647016.200,259772.800,462546.100,0.000
291528.900,276897.300,711909.100,548311.400,711688.000,646429.800,259379.000,462014.300,0.000
291637.200,277001.900,711922.700,548305.200,711702.000,646159.400,259429.500,461835.000,0.000
291947.000,277289.400,711943.600,548735.700,711723.500,646093.200,259773.100,461905.000,0.000
291892.300,277234.600,711936.600,548655.900,711716.800,645776.600,259760.200,461697.500,0.000
291550.400,276918.400,711913.200,548010.400,711693.000,645191.200,259360.700,461171.600,0.000
291573.000,276948.700,711920.600,547871.400,711700.300,644861.400,259319.000,460919.600,0.000
291890.900,277247.900,711944.500,548290.200,711723.800,644793.300,259659.700,460983.400,0.000
291918.700,277267.800,711941.800,548346.700,711721.600,644543.300,259744.200,460852.600,0.000
291572.500,276943.400,711918.800,547718.500,711699.000,643966.900,259354.000,460336.800,0.000
291521.900,276901.600,711920.800,547446.900,711700.500,643572.300,259219.500,460010.900,0.000
291816.300,277179.900,711943.300,547811.100,711723.000,643475.400,259521.300,460044.600,0.000
291926.900,277279.800,711945.000,547996.100,711725.000,643286.800,259690.800,459983.500,0.000
291600.100,276971.900,711923.300,547426.400,711703.200,642736.300,259340.300,459501.700,0.000
291471.300,276859.300,711918.600,547037.100,711698.400,642290.300,259129.100,459117.900,0.000
291740.300,277113.800,711939.500,547339.700,711719.600,642169.900,259390.400,459117.900,0.000
291940.200,277297.900,711954.900,547652.800,711735.300,642049.700,259655.200,459134.000,0.000
291655.800,277031.400,711932.700,547175.200,711712.800,641537.800,259366.200,458704.200,0.000
291450.100,276847.800,711923.100,546680.600,711703.000,641039.700,259079.700,458261.700,0.000
291661.900,277047.900,711941.600,546883.600,711721.100,640868.900,259272.600,458204.000,0.000
291902.300,277269.500,711953.700,547255.700,711733.500,640767.700,259572.000,458243.900,0.000
291694.900,277072.100,711938.300,546916.800,711718.300,640329.600,259379.300,457900.400,0.000
291425.500,276825.800,711922.400,546336.200,711702.800,639783.900,259026.500,457410.500,0.000
291585.000,276981.400,711938.300,546428.500,711718.600,639565.600,259144.400,457291.900,0.000
291875.500,277251.200,711958.600,546854.600,711738.900,639500.000,259486.700,457366.100,0.000
291745.100,277123.700,711945.900,546658.700,711726.500,639127.000,259391.000,457097.600,0.000
291431.700,276832.000,711925.800,546031.500,711706.100,638555.100,259004.300,456584.300,0.000
291513.800,276912.700,711932.500,545986.400,711712.900,638264.100,259021.100,456385.500,0.000
291820.300,277197.400,711951.800,546414.400,711732.600,638196.900,259362.400,456459.800,0.000
291783.300,277156.200,711947.000,546369.900,711727.600,637902.600,259371.300,456281.200,0.000
291446.600,276839.900,711924.900,545728.900,711705.300,637327.800,258973.000,455767.700,0.000
291465.700,276866.600,711930.900,545565.500,711710.900,636990.400,258914.000,455512.000,0.000
291778.600,277161.400,711956.900,545982.100,711737.100,636923.700,259251.000,455582.900,0.000
291833.700,277207.300,711958.400,546086.100,711738.700,636703.900,259367.700,455488.300,0.000
291486.300,276878.800,711933.800,545468.500,711714.400,636137.900,258985.500,454987.700,0.000
291414.100,276815.500,711933.300,545173.900,711713.800,635742.900,258834.100,454660.800,0.000
291706.300,277089.600,711955.700,545532.000,711736.000,635649.100,259130.200,454698.500,0.000
291838.600,277207.100,711958.400,545748.900,711739.500,635476.700,259320.100,454660.300,0.000
291512.100,276898.900,711932.900,545197.900,711713.800,634934.900,258977.300,454197.400,0.000
291369.000,276771.400,711928.400,544787.500,711709.200,634484.800,258748.500,453812.200,0.000
291617.100,277007.700,711948.100,545056.600,711729.200,634349.900,258982.100,453796.500,0.000
291829.300,277198.300,711959.300,545382.100,711740.300,634237.700,259250.600,453821.300,0.000
291564.200,276943.100,711938.300,544941.900,711719.600,633754.600,258989.100,453424.900,0.000
291346.100,276745.300,711928.400,544432.400,711709.800,633257.900,258693.000,452986.700,0.000
291549.700,276940.100,711948.600,544614.900,711729.400,633087.200,258869.800,452926.600,0.000
291806.500,277177.200,711966.100,545009.600,711747.300,633010.400,259185.100,452989.900,0.000
291613.300,276992.100,711950.100,544708.400,711731.500,632598.100,259016.300,452673.300,0.000
291318.600,276720.800,711928.400,544103.000,711709.600,632041.600,258640.400,452173.800,0.000
291450.400,276850.000,711939.800,544156.200,711721.300,631807.600,258725.800,452038.100,0.000
291754.800,277132.800,711963.400,544593.700,711744.700,631762.400,259079.600,452133.400,0.000
291648.300,277026.000,711956.400,544440.900,711737.500,631427.900,259017.700,451906.500,0.000
291318.000,276720.900,711934.900,543805.600,711715.900,630862.400,258624.300,451400.900,0.000
291382.200,276789.200,711942.200,543736.700,711723.000,630574.500,258626.500,451202.800,0.000
291685.700,277071.900,711962.600,544163.700,711743.600,630515.900,258965.000,451284.300,0.000
291674.700,277052.900,711958.600,544159.500,711740.100,630251.000,259000.300,451136.700,0.000
291336.600,276736.600,711938.100,543528.100,711719.400,629690.900,258609.300,450639.000,0.000
291335.900,276741.300,711944.900,543337.900,711726.000,629351.200,258532.000,450378.200,0.000
291622.700,277010.500,711960.900,543720.900,711742.700,629264.100,258837.100,450425.000,0.000
291691.400,277067.900,711960.300,543850.300,711742.000,629058.400,258964.500,450346.200,0.000
291358.000,276755.500,711938.100,543258.600,711719.600,628513.100,258595.300,449870.300,0.000
291260.300,276670.200,711934.800,542932.200,711716.500,628100.900,258416.900,449532.000,0.000
291537.800,276928.900,711956.200,543269.800,711738.400,628001.700,258695.800,449565.300,0.000
291691.300,277066.600,711963.300,543519.700,711745.000,627858.600,258908.300,449556.900,0.000
291385.300,276777.600,711942.300,543001.300,711724.600,627348.500,258588.600,449123.300,0.000
291221.100,276630.700,711935.600,542562.300,711717.800,626890.900,258335.800,448725.800,0.000
291467.300,276864.200,711957.400,542824.900,711739.400,626764.800,258569.300,448720.100,0.000
291693.600,277069.100,711971.900,543175.900,711753.900,626673.600,258854.700,448770.300,0.000
291461.900,276848.400,711955.100,542785.100,711737.600,626228.500,258627.000,448415.700,0.000
291228.500,276638.300,711943.100,542257.600,711725.400,625727.100,258313.800,447974.800,0.000
291402.200,276806.600,711957.000,542400.500,711739.100,625535.100,258457.500,447894.700,0.000
291673.000,277058.400,711974.300,542808.900,711756.600,625474.000,258783.600,447975.800,0.000
291485.900,276877.400,711956.900,542528.400,711739.400,625070.900,258624.300,447672.700,0.000
291190.400,276604.500,711939.600,541927.100,711721.500,624530.800,258255.500,447191.700,0.000
291313.800,276727.700,711952.600,541964.600,711734.200,624302.400,258331.000,447059.200,0.000
291611.400,277002.800,711974.400,542403.600,711756.800,624256.600,258676.600,447156.600,0.000
291527.200,276919.000,711966.500,542290.100,711748.900,623944.400,258637.200,446957.300,0.000
291205.800,276623.500,711946.800,541664.400,711728.800,623395.400,258249.800,446469.500,0.000
291242.600,276663.500,711951.800,541558.900,711733.800,623089.900,258222.900,446254.200,0.000
291548.200,276948.300,711975.100,541984.100,711757.600,623036.500,258559.500,446340.600,0.000
291553.800,276943.800,711971.300,542011.600,711754.300,622790.400,258616.800,446215.000,0.000
291210.000,276619.300,711946.900,541383.300,711729.300,622232.800,258222.900,445723.600,0.000
291184.900,276603.100,711951.200,541160.900,711733.300,621884.700,258121.400,445453.400,0.000
291475.300,276873.700,711971.600,541542.800,711753.900,621811.500,258427.900,445513.700,0.000
291567.200,276954.200,711972.600,541707.300,711754.900,621629.900,258577.900,445465.000,0.000
291245.300,276652.600,711951.300,541141.200,711733.900,621107.700,258229.700,445016.800,0.000
291130.900,276553.900,711946.600,540785.600,711729.400,620691.300,258031.400,444667.000,0.000
291401.600,276811.500,711968.200,541112.900,711750.800,620599.400,258304.600,444701.300,0.000
291569.900,276966.700,711975.900,541394.700,711758.700,620476.500,258536.900,444715.100,0.000
291274.100,276684.900,711954.100,540903.500,711736.500,619980.600,258233.000,444303.300,0.000
291098.300,276522.700,711946.800,540449.900,711729.100,619522.800,257970.500,443910.000,0.000
291328.800,276738.900,711965.100,540687.900,711747.700,619387.500,258177.700,443890.900,0.000
291563.200,276952.700,711978.100,541059.100,711761.000,619312.600,258472.900,443956.300,0.000
291319.000,276719.200,711958.500,540683.800,711741.600,618872.800,258246.600,443608.000,0.000
291070.500,276491.600,711947.600,540141.400,711730.400,618370.900,257917.500,443165.100,0.000
291246.200,276664.600,711964.400,540274.600,711747.200,618191.500,258056.900,443092.100,0.000
291525.200,276924.300,711981.600,540692.900,711764.000,618140.600,258388.300,443182.400,0.000
291374.000,276777.000,711968.100,540463.100,711750.800,617777.700,258266.900,442920.500,0.000
291073.200,276501.000,711950.400,539857.100,711733.100,617243.600,257890.500,442442.800,0.000
291173.000,276600.200,711959.700,539857.300,711742.400,616995.400,257932.700,442289.100,0.000
291484.500,276889.800,711980.600,540301.500,711763.600,616958.800,258279.700,442393.200,0.000
291429.000,276831.100,711974.400,540230.600,711757.400,616674.100,258267.600,442223.100,0.000
291098.300,276517.800,711956.300,539605.200,711739.100,616128.900,257876.800,441740.100,0.000
291136.500,276556.300,711963.600,539491.100,711746.600,615838.500,257844.300,441532.200,0.000
291436.300,276834.900,711982.500,539906.500,711765.800,615784.300,258170.000,441614.600,0.000
291460.400,276852.800,711979.600,539970.300,711763.400,615561.200,258251.100,441517.300,0.000
291115.000,276532.700,711957.600,539358.600,711741.100,615020.400,257870.200,441045.800,0.000
291061.600,276490.100,711957.400,539104.400,711740.300,614657.300,257741.800,440759.800,0.000
291352.800,276762.700,711978.400,539486.900,711761.800,614593.900,258046.500,440830.200,0.000
291473.300,276869.700,711984.400,539694.300,711767.600,614448.300,258226.000,440814.700,0.000
291152.000,276567.600,711963.400,539140.900,711746.600,613935.200,257880.800,440375.400,0.000
291020.000,276450.200,711954.900,538759.400,711738.300,613508.400,257661.000,440019.000,0.000
291273.200,276688.000,711972.000,539061.800,711755.500,613403.800,257907.900,440043.100,0.000
291464.300,276863.600,711983.100,539376.100,711766.600,613308.800,258164.300,440087.400,0.000
291189.600,276604.600,711962.800,538921.100,711746.300,612842.600,257889.400,439707.800,0.000
290982.800,276418.900,711952.400,538439.800,711736.100,612375.500,257603.100,439301.900,0.000
291195.900,276623.000,711971.600,538652.400,711754.900,612235.600,257791.000,439275.800,0.000
291445.100,276851.800,711987.100,539040.400,711770.600,612177.500,258098.700,439358.300,0.000
291236.000,276652.500,711970.700,538710.800,711754.100,611775.900,257908.400,439049.100,0.000
290975.300,276412.200,711956.800,538153.900,711740.400,611275.400,257570.300,438606.300,0.000
291130.000,276561.500,711971.400,538256.500,711754.900,611084.500,257684.700,438519.600,0.000
291407.700,276818.400,711987.900,538684.300,711772.100,611039.400,258015.000,438617.700,0.000
291270.000,276683.600,711974.100,538490.600,711758.300,610692.800,257915.200,438380.000,0.000
290960.500,276400.500,711956.600,537879.800,711740.400,610162.500,257538.000,437908.700,0.000
291043.900,276484.000,711964.600,537855.900,711748.300,609913.600,257563.900,437751.300,0.000
291343.400,276761.800,711983.200,538292.300,711767.200,609877.600,257901.600,437854.500,0.000
291305.600,276718.700,711979.000,538254.500,711763.100,609612.600,257910.600,437707.600,0.000
290972.800,276410.300,711958.800,537636.300,711742.900,609076.900,257524.800,437236.300,0.000
290982.900,276427.100,711963.700,537492.100,711747.600,608774.400,257469.800,437015.800,0.000
291295.500,276718.300,711987.900,537923.600,711771.800,608741.900,257807.200,437118.900,0.000
291352.200,276764.500,711990.100,538036.800,711774.200,608559.900,257922.300,437059.300,0.000
290997.400,276431.500,711965.100,537424.200,711749.300,608019.800,257531.500,436586.000,0.000
290923.000,276372.600,711961.600,537135.800,711745.800,607648.400,257376.400,436286.300,0.000
291210.900,276645.800,711983.600,537503.100,711767.900,607585.600,257672.300,436354.000,0.000
291341.900,276764.700,711989.800,537735.100,711773.800,607454.000,257869.500,436356.000,0.000
291021.400,276460.600,711968.100,537197.200,711751.800,606954.400,257532.800,435930.700,0.000
290870.300,276324.000,711959.400,536793.400,711743.400,606527.400,257297.100,435568.600,0.000
291128.200,276567.300,711979.600,537092.100,711763.700,606435.700,257543.900,435598.900,0.000
291346.400,276766.700,711994.800,537438.900,711778.900,606366.100,257821.100,435669.000,0.000
291080.300,276511.300,711975.100,537008.600,711759.400,605915.100,257556.300,435306.100,0.000
290868.700,276318.700,711964.000,536516.100,711748.300,605454.900,257261.400,434902.200,0.000
291066.500,276508.900,711978.400,536704.600,711762.800,605307.900,257432.000,434865.800,0.000
291328.700,276749.300,711993.900,537109.700,711778.900,605264.400,257749.100,434962.400,0.000
291134.200,276560.900,711980.300,536813.100,711764.900,604884.400,257577.800,434676.300,0.000
290855.900,276309.000,711963.700,536239.500,711748.100,604379.400,257224.700,434229.000,0.000
291000.100,276450.900,711976.600,536323.300,711761.300,604190.700,257327.500,434140.900,0.000
291294.600,276723.800,711997.400,536766.400,711782.400,604170.300,257673.700,434261.600,0.000
291181.100,276609.200,711985.600,536608.600,711770.300,603856.900,257598.800,434053.100,0.000
290866.300,276318.300,711967.000,535997.600,711751.800,603337.600,257217.300,433587.500,0.000
290938.000,276389.300,711976.400,535950.300,711760.700,603089.000,257230.400,433426.000,0.000
291234.800,276662.800,711994.300,536378.300,711779.100,603053.400,257561.400,433529.400,0.000
291217.400,276640.700,711991.800,536381.600,711776.900,602818.800,257600.100,433413.500,0.000
290871.000,276317.600,711967.800,535754.000,711752.600,602280.800,257201.900,432938.900,0.000
290869.900,276322.000,711970.600,535578.400,711755.700,601972.300,257125.500,432709.900,0.000
291174.200,276604.600,711991.000,535989.300,711775.900,601936.000,257449.000,432808.800,0.000
291244.400,276659.100,711992.300,536127.900,711777.300,601765.700,257577.600,432764.800,0.000
290912.300,276346.600,711970.100,535548.900,711754.900,601254.300,257215.500,432321.600,0.000
290832.000,276279.000,711970.300,535249.500,711754.500,600889.200,257054.100,432023.300,0.000
291111.700,276541.800,711991.100,535604.300,711775.600,600828.300,257338.300,432088.500,0.000
291264.600,276681.000,711998.400,535866.600,711783.300,600721.300,257553.400,432112.200,0.000
290959.400,276394.600,711975.000,535353.800,711760.100,600235.200,257231.300,431704.300,0.000
290801.500,276255.000,711968.900,534939.900,711753.900,599816.100,256992.800,431349.200,0.000
291039.300,276480.900,711987.800,535210.900,711772.800,599714.400,257221.700,431368.400,0.000
291256.600,276676.300,712002.000,535567.600,711787.100,599649.300,257501.700,431443.600,0.000
291014.300,276440.400,711983.400,535177.900,711768.700,599231.400,257267.100,431115.000,0.000
290773.900,276220.300,711969.400,534654.100,711754.300,598754.900,256947.400,430698.600,0.000
290965.900,276408.800,711986.800,534825.600,711771.800,598612.600,257108.600,430665.900,0.000
291230.600,276658.400,712003.100,535242.500,711788.500,598582.500,257431.600,430774.700,0.000
291059.400,276492.900,711990.900,534987.300,711775.900,598228.400,257287.200,430521.200,0.000
290770.600,276224.900,711975.900,534402.800,711761.200,597725.400,256922.400,430075.100,0.000
290885.600,276336.100,711984.100,534444.200,711769.700,597518.300,256991.100,429966.500,0.000
291178.800,276605.700,712002.500,534886.200,711788.100,597498.600,257330.700,430087.600,0.000
291092.300,276519.900,711995.800,534777.300,711780.900,597217.400,257285.800,429912.400,0.000
290766.500,276218.400,711975.200,534164.400,711760.700,596702.100,256899.900,429454.200,0.000
290820.300,276275.500,711983.000,534093.800,711768.400,596449.900,256894.000,429288.000,0.000
291119.700,276558.400,712003.700,534534.700,711789.800,596431.800,257233.000,429407.700,0.000
291118.400,276551.100,712001.400,534569.600,711787.600,596218.700,257287.500,429311.000,0.000
290777.700,276232.400,711979.000,533958.400,711764.800,595699.900,256900.000,428853.400,0.000
290757.000,276219.800,711983.300,533757.800,711768.700,595387.400,256805.100,428616.200,0.000
291052.100,276495.800,712004.500,534157.600,711790.200,595350.900,257118.200,428713.500,0.000
291146.700,276577.700,712009.400,534333.100,711795.100,595208.100,257272.500,428701.000,0.000
290820.200,276269.400,711986.800,533769.600,711772.200,594712.800,256914.900,428276.100,0.000
290717.400,276181.600,711984.400,533442.800,711769.800,594339.800,256731.700,427970.900,0.000
290982.500,276432.900,712002.200,533777.800,711788.000,594271.800,256998.000,428028.400,0.000
291148.100,276584.100,712010.200,534064.600,711796.300,594183.300,257228.000,428072.100,0.000
290852.300,276304.600,711990.200,533580.700,711776.300,593725.800,256929.300,427693.000,0.000
290675.800,276144.600,711982.300,533138.800,711768.400,593303.100,256668.500,427327.000,0.000
290902.400,276357.300,711998.600,533386.700,711785.000,593197.200,256877.300,427336.200,0.000
291137.800,276573.200,712013.800,533764.300,711799.600,593156.100,257171.500,427430.400,0.000
290908.900,276356.000,711996.900,533399.800,711782.700,592759.300,256952.400,427119.300,0.000
290663.400,276130.700,711983.400,532869.800,711768.900,592290.400,256626.400,426705.900,0.000
290839.900,276297.800,711999.100,533019.100,711784.300,592141.600,256769.300,426665.100,0.000
291122.000,276558.800,712018.200,533450.900,711803.600,592126.200,257104.200,426790.800,0.000
290957.100,276399.700,712001.400,533215.000,711787.600,591782.900,256970.400,426545.900,0.000
290659.800,276124.200,711981.100,532623.800,711767.300,591282.600,256601.800,426102.700,0.000
290767.700,276229.800,711992.900,532648.400,711778.600,591079.100,256661.000,425991.900,0.000
291078.000,276522.500,712016.900,533107.300,711802.900,591083.000,257017.000,426131.700,0.000
291009.300,276452.900,712007.600,533030.600,711793.400,590821.600,256996.700,425978.800,0.000
290670.900,276136.300,711984.600,532407.500,711770.500,590303.900,256602.800,425517.200,0.000
290711.500,276178.600,711992.300,532307.900,711778.400,590045.300,256577.000,425341.600,0.000
291029.400,276477.100,712016.400,532751.300,711802.400,590042.600,256923.600,425474.800,0.000
291066.700,276506.400,712020.100,532833.800,711805.900,589870.000,257017.200,425418.900,0.000
290719.600,276181.100,711995.200,532222.600,711780.900,589354.200,256630.000,424966.800,0.000
290664.800,276135.200,711990.200,531975.800,711775.900,589018.200,256497.500,424703.500,0.000
290956.400,276406.000,712009.700,532364.300,711795.600,588982.400,256798.600,424796.900,0.000
291072.600,276510.000,712016.100,532576.300,711802.100,588862.900,256976.800,424804.700,0.000
290753.300,276213.400,711995.400,532036.400,711781.400,588383.900,256636.000,424393.800,0.000
290643.100,276120.800,711994.100,531697.000,711779.800,588017.900,256446.300,424089.900,0.000
290910.900,276374.400,712015.400,532027.600,711801.500,587963.800,256713.600,424155.200,0.000
291091.000,276537.200,712023.400,532338.000,711809.500,587891.500,256956.200,424216.600,0.000
290810.400,276269.800,712003.900,531884.100,711789.900,587452.100,256669.800,423856.300,0.000
290614.100,276092.200,711992.500,531422.300,711778.800,587018.900,256388.700,423479.600,0.000
290836.300,276305.500,712012.200,531663.200,711798.300,586919.800,256595.000,423493.100,0.000
291067.700,276517.500,712023.700,532048.200,711810.000,586879.300,256891.300,423588.400,0.000
290851.700,276308.400,712007.200,531718.500,711793.700,586501.100,256694.200,423299.500,0.000
290595.300,276076.400,711992.300,531175.400,711778.900,586030.700,256357.600,422884.300,0.000
290757.100,276231.000,712007.100,531299.300,711793.800,585877.300,256480.100,422835.400,0.000
291033.700,276483.100,712022.200,531732.500,711809.100,585865.700,256810.400,422963.700,0.000
290899.700,276352.600,712010.600,531545.800,711797.500,585556.600,256711.000,422756.700,0.000
290596.400,276075.100,711991.900,530949.400,711778.600,585061.100,256337.500,422316.700,0.000
290692.100,276170.000,712000.600,530949.800,711787.100,584852.200,256378.600,422200.200,0.000
290998.200,276453.400,712023.000,531402.800,711809.700,584853.400,256726.700,422341.900,0.000
290951.600,276399.700,712017.600,531363.700,711804.400,584613.400,256727.800,422215.800,0.000
290615.200,276086.500,711995.600,530750.300,711782.100,584107.900,256338.500,421769.300,0.000
290632.500,276110.100,712000.000,530624.800,711786.800,583841.900,256290.600,421582.200,0.000
290938.300,276399.300,712021.100,531057.300,711808.300,583832.000,256622.100,421707.200,0.000
290988.300,276439.100,712023.600,531170.900,711810.500,583673.300,256733.300,421671.000,0.000
290635.800,276105.000,711997.900,530565.300,711784.900,583164.000,256343.000,421223.800,0.000
290561.400,276041.500,711993.800,530291.400,711781.100,582824.200,256190.900,420953.600,0.000
290856.000,276316.400,712015.700,530677.400,711802.900,582799.100,256495.100,421059.400,0.000
290994.200,276439.400,712024.300,530918.500,711811.400,582702.300,256696.700,421094.000,0.000
290675.400,276138.100,712000.400,530387.600,711787.800,582231.700,256361.200,420696.000,0.000
290533.600,276014.000,711995.400,530012.400,711782.600,581851.100,256145.100,420374.700,0.000
290785.200,276254.700,712016.300,530322.300,711803.100,581788.700,256395.500,420433.600,0.000
290986.100,276439.300,712027.000,530659.300,711813.900,581735.300,256656.000,420515.100,0.000
290719.600,276182.000,712009.300,530234.800,711796.300,581317.900,256392.400,420179.200,0.000
290515.900,275996.300,711998.900,529759.500,711785.600,580889.100,256106.600,419809.200,0.000
290717.300,276187.200,712013.400,529962.400,711800.400,580777.800,256285.400,419807.000,0.000
290957.900,276405.800,712024.100,530359.300,711811.100,580748.300,256586.500,419917.200,0.000
290763.000,276219.300,712011.600,530071.200,711798.100,580400.200,256419.800,419664.500,0.000
290487.800,275966.800,711996.000,529512.700,711783.200,579930.800,256073.800,419247.900,0.000
290635.700,276111.900,712009.300,529607.400,711796.600,579773.200,256179.500,419187.500,0.000
290928.500,276384.100,712028.100,530056.100,711815.400,579778.000,256523.300,419332.700,0.000
290827.900,276284.200,712021.200,529917.300,711809.100,579503.100,256460.000,419162.100,0.000
290495.400,275975.900,711997.000,529296.600,711784.800,578992.800,256062.100,418706.300,0.000
290563.600,276047.000,712005.600,529260.600,711793.200,578770.800,256073.500,418572.000,0.000
290885.500,276346.900,712029.200,529725.000,711816.900,578790.500,256430.200,418729.700,0.000
290859.900,276316.800,712022.600,529721.300,711810.000,578577.300,256455.600,418630.400,0.000
290507.500,275988.500,711998.400,529098.200,711785.900,578067.800,256056.900,418182.800,0.000
290516.200,276002.800,712006.900,528949.500,711794.000,577805.300,255999.000,417996.700,0.000
290828.000,276294.800,712030.400,529384.800,711817.600,577808.800,256336.600,418133.600,0.000
290889.000,276345.600,712030.500,529525.100,711817.700,577661.800,256461.900,418110.200,0.000
290552.500,276029.200,712008.700,528950.500,711796.500,577178.800,256096.800,417691.400,0.000
290459.100,275945.600,712002.500,528647.100,711790.100,576827.100,255924.200,417406.200,0.000
290750.000,276221.500,712023.700,529019.900,711810.800,576803.300,256220.600,417509.300,0.000
290897.000,276352.300,712030.300,529284.300,711817.400,576721.400,256433.000,417555.700,0.000
290586.600,276058.600,712008.300,528777.300,711795.200,576268.300,256111.100,417172.600,0.000
290427.900,275918.100,712000.800,528376.300,711788.300,575880.300,255872.500,416842.900,0.000
290677.400,276157.300,712023.900,528673.700,711811.600,575824.100,256115.800,416903.300,0.000
290891.500,276352.000,712037.100,529035.300,711825.100,575791.300,256394.100,417003.400,0.000
290638.800,276111.800,712017.400,528638.800,711805.600,575393.300,256146.600,416684.600,0.000
290408.100,275901.500,712007.000,528134.800,711795.000,574956.400,255835.900,416299.100,0.000
290581.900,276065.600,712018.100,528301.800,711806.200,574829.100,255982.600,416275.800,0.000
290840.400,276300.700,712033.000,528721.300,711821.100,574823.100,256298.400,416405.000,0.000
290659.500,276124.400,712018.500,528456.900,711806.400,574487.500,256142.100,416163.800,0.000
290394.000,275881.300,712005.100,527902.000,711792.900,574036.000,255802.000,415763.800,0.000
290541.200,276025.800,712023.200,527987.800,711810.800,573890.600,255905.200,415710.800,0.000
290822.500,276285.700,712037.500,528426.800,711825.800,573887.400,256234.100,415845.200,0.000
290724.900,276187.700,712027.200,528309.500,711815.600,573622.500,256180.300,415686.900,0.000
290403.100,275887.100,712007.200,527697.800,711795.300,573132.800,255794.900,415248.300,0.000
290469.300,275953.800,712016.100,527643.700,711803.800,572915.600,255799.400,415112.100,0.000
290766.300,276230.700,712033.400,528082.900,711821.400,572918.300,256132.200,415250.600,0.000
290761.700,276222.300,712031.100,528116.100,711818.900,572725.500,256182.500,415174.200,0.000
290418.000,275901.400,712007.200,527505.100,711795.200,572228.600,255791.200,414734.800,0.000
290400.700,275891.500,712009.900,527321.600,711798.300,571954.400,255705.500,414530.500,0.000
290703.700,276172.900,712031.800,527739.800,711820.300,571956.700,256026.200,414658.100,0.000
290798.700,276256.800,712036.900,527922.900,711825.300,571849.800,256185.800,414672.600,0.000
290462.400,275942.700,712012.500,527355.400,711800.600,571375.700,255823.800,414264.400,0.000
290367.400,275860.100,712009.100,527040.100,711796.900,571035.800,255645.400,413986.500,0.000
290654.600,276132.200,712032.300,527406.800,711820.500,571018.500,255935.700,414090.500,0.000
290821.600,276281.900,712042.900,527703.300,711830.800,570959.100,256169.300,414162.100,0.000
290508.200,275984.200,712018.000,527208.800,711806.100,570512.100,255850.700,413789.200,0.000
290316.400,275812.900,712006.400,526767.000,711794.400,570105.100,255582.700,413437.700,0.000
290549.600,276033.800,712025.100,527034.100,711813.300,570038.400,255803.300,413482.100,0.000
290783.800,276246.100,712039.100,527415.300,711827.600,570023.500,256098.600,413600.200,0.000
290542.600,276015.300,712021.100,527046.900,711809.900,569646.600,255872.900,413303.500,0.000
290297.700,275794.500,712006.400,526527.900,711794.800,569210.000,255553.400,412917.600,0.000
290474.400,275965.400,712020.800,526691.700,711809.700,569097.900,255704.300,412905.000,0.000
290756.300,276225.300,712039.400,527134.400,711827.800,569115.900,256039.200,413057.000,0.000
290602.200,276073.800,712027.600,526913.300,711816.000,568810.400,255910.400,412844.700,0.000
290325.100,275818.200,712014.800,526350.600,711803.100,568359.600,255559.900,412441.000,0.000
290435.900,275928.200,712024.300,526389.300,711812.700,568188.400,255621.100,412356.000,0.000
290718.500,276190.800,712039.800,526826.900,711828.300,568194.300,255948.600,412493.500,0.000
290648.500,276121.000,712034.600,526753.600,711823.500,567963.100,255926.100,412366.900,0.000
290313.700,275810.600,712013.300,526140.800,711801.900,567477.100,255534.600,411931.800,0.000
290353.300,275852.100,712018.800,526050.800,711807.300,567248.100,255509.400,411778.300,0.000
290665.700,276138.500,712039.700,526498.600,711828.100,567266.600,255848.000,411927.800,0.000
290685.300,276149.800,712036.100,526568.900,711824.300,567102.300,255923.500,411878.800,0.000
290339.200,275828.100,712011.200,525962.100,711799.100,566612.200,255532.800,411447.100,0.000
290304.600,275803.400,712014.500,525752.900,711802.300,566329.600,255425.300,411231.100,0.000
290594.700,276070.900,712034.900,526157.800,711823.100,566330.000,255733.700,411355.300,0.000
290703.600,276163.400,712039.800,526368.300,711829.000,566233.600,255905.800,411382.200,0.000
290374.900,275856.800,712018.200,525823.400,711807.300,565777.500,255557.500,410989.900,0.000
290269.100,275767.900,712017.400,525495.200,711806.300,565444.000,255372.300,410712.700,0.000
290551.200,276032.500,712039.500,525844.800,711828.400,565423.600,255649.100,410811.000,0.000
290723.600,276187.800,712044.700,526153.500,711834.000,565371.500,255885.700,410889.500,0.000
290416.000,275896.400,712020.100,525677.600,711809.300,564940.600,255578.400,410530.100,0.000
290240.300,275740.200,712013.700,525240.600,711802.600,564555.400,255316.800,410195.300,0.000
290467.300,275955.500,712032.800,525490.800,711821.800,564486.400,255523.700,410234.800,0.000
290709.800,276174.900,712048.800,525891.100,711837.800,564486.100,255829.000,410366.200,0.000
290487.300,275962.300,712030.100,525560.900,711819.100,564131.300,255628.700,410097.600,0.000
290229.800,275729.300,712016.800,525026.800,711805.300,563691.800,255295.300,409707.100,0.000
290403.000,275896.700,712034.900,525173.800,711823.400,563582.100,255434.400,409691.900,0.000
290683.000,276153.400,712052.600,525623.000,711841.600,563603.800,255772.000,409848.100,0.000
290542.700,276017.100,712037.900,525434.000,711826.600,563317.100,255664.200,409657.600,0.000
290235.800,275733.400,712020.100,524847.300,711808.900,562856.200,255293.800,409242.100,0.000
290336.900,275829.600,712030.800,524863.100,711820.200,562681.900,255337.700,409150.500,0.000
290632.300,276100.800,712048.300,525313.400,711837.600,562700.400,255672.300,409299.900,0.000
290581.500,276050.100,712041.600,525273.800,711831.200,562486.900,255670.000,409190.600,0.000
290246.200,275741.100,712018.900,524666.900,711808.100,562008.400,255281.200,408762.200,0.000
290279.500,275780.100,712026.800,524566.900,711816.000,561786.200,255252.500,408612.300,0.000
290590.700,276073.900,712049.400,525014.200,711838.800,561812.800,255593.800,408768.500,0.000
290633.800,276107.400,712049.200,525125.100,711838.400,561677.300,255697.800,408749.600,0.000
290279.700,275772.500,712023.300,524528.300,711812.400,561199.600,255311.000,408327.200,0.000
290227.600,275732.100,712025.900,524289.100,711814.900,560912.100,255184.000,408101.600,0.000
290521.900,276009.500,712047.900,524684.200,711837.400,560914.100,255486.400,408226.400,0.000
290658.400,276132.800,712055.200,524930.200,711844.800,560846.300,255687.000,408282.000,0.000
290324.600,275817.800,712029.300,524393.100,711818.100,560392.100,255339.400,407893.100,0.000
290187.700,275694.800,712023.400,524026.800,711812.400,560038.400,255122.900,407594.600,0.000
290449.200,275942.000,712042.500,524350.100,711831.800,560009.100,255379.700,407678.900,0.000
290650.800,276123.600,712054.000,524694.400,711843.400,559986.400,255645.000,407785.600,0.000
290382.200,275868.100,712036.300,524272.400,711825.500,559595.400,255379.100,407469.600,0.000
290169.400,275675.400,712025.500,523802.400,711814.900,559191.600,255090.300,407116.100,0.000
290371.600,275866.600,712041.100,524021.600,711830.600,559108.200,255272.200,407138.800,0.000
290632.400,276108.300,712059.800,524445.100,711849.300,559127.400,255594.300,407291.700,0.000
290431.900,275916.400,712042.700,524147.800,711832.300,558798.400,255415.700,407048.800,0.000
290162.500,275672.200,712027.900,523602.800,711817.600,558362.100,255076.000,406658.600,0.000
290319.000,275825.400,712043.600,523722.300,711833.200,558244.300,255194.100,406630.700,0.000
290610.300,276092.300,712062.100,524183.600,711852.300,558280.400,255540.200,406800.500,0.000
290485.200,275967.100,712050.700,524027.100,711840.400,558015.500,255454.200,406631.700,0.000
290158.800,275664.300,712028.600,523419.800,711818.000,557541.100,255062.500,406202.500,0.000
290233.100,275739.900,712034.400,523397.400,711824.300,557353.500,255080.900,406091.400,0.000
290531.200,276015.700,712053.800,523852.000,711843.900,557385.000,255419.900,406250.900,0.000
290508.400,275988.100,712049.800,523857.700,711840.000,557204.300,255450.300,406177.600,0.000
290164.000,275668.800,712027.200,523246.400,711817.400,556728.000,255057.300,405752.800,0.000
290162.200,275672.900,712030.500,523098.400,711820.300,556479.100,254990.000,405572.600,0.000
290478.600,275968.300,712054.100,523544.300,711844.000,556512.400,255327.400,405730.400,0.000
290527.200,276003.600,712050.600,523670.700,711840.900,556379.300,255431.800,405712.800,0.000
290189.000,275686.000,712027.300,523090.900,711817.400,555919.100,255056.900,405308.300,0.000
290131.300,275639.100,712031.100,522835.900,711821.100,555635.400,254921.900,405084.700,0.000
290424.100,275915.700,712054.600,523228.100,711844.900,555646.600,255224.600,405215.200,0.000
290564.600,276041.700,712058.400,523492.200,711848.800,555585.700,255429.200,405277.100,0.000
290247.600,275742.900,712035.300,522980.900,711825.300,555156.000,255101.000,404912.300,0.000
290089.200,275600.800,712027.600,522582.200,711817.600,554791.900,254859.900,404599.100,0.000
290339.300,275838.100,712046.400,522884.100,711836.500,554756.100,255097.600,404674.000,0.000
290558.800,276040.200,712058.500,523251.200,711848.600,554750.100,255376.300,404796.600,0.000
290293.800,275789.600,712037.100,522845.400,711827.400,554366.100,255116.800,404487.600,0.000
290065.900,275582.400,712026.000,522352.100,711816.400,553957.000,254810.000,404124.600,0.000
290272.200,275780.900,712045.300,522567.100,711835.800,553887.500,254992.800,404154.700,0.000
290536.800,276025.400,712060.400,523002.700,711851.400,553914.100,255319.500,404312.800,0.000
290364.200,275860.200,712046.700,522746.300,711837.800,553612.100,255166.600,404096.700,0.000
290067.000,275587.000,712029.300,522171.100,711819.400,553159.000,254797.700,403688.500,0.000
290198.400,275714.800,712044.100,522256.000,711834.500,553025.900,254888.400,403642.500,0.000
290493.000,275984.800,712061.500,522713.800,711852.500,553062.300,255230.000,403809.300,0.000
290391.100,275882.000,712049.600,522593.100,711840.400,552817.600,255166.800,403661.000,0.000
290064.900,275579.700,712030.400,521991.400,711821.600,552355.100,254782.700,403243.500,0.000
290128.300,275642.200,712037.500,521947.600,711828.500,552163.200,254784.400,403124.900,0.000
290449.800,275943.100,712059.800,522418.500,711850.900,552214.900,255139.100,403304.600,0.000
290440.400,275927.300,712057.900,522452.000,711849.300,552051.300,255186.600,403247.800,0.000
290089.700,275599.100,712034.300,521843.100,711825.300,551581.700,254792.800,402829.300,0.000
290072.400,275588.300,712036.600,521668.200,711827.400,551327.500,254705.800,402641.100,0.000
290383.600,275877.200,712060.800,522106.300,711851.400,551361.900,255037.700,402797.900,0.000
290468.900,275952.700,712065.900,522290.200,711856.900,551274.300,255188.600,402823.700,0.000
290121.600,275624.800,712038.900,521715.800,711829.900,550812.600,254810.000,402418.400,0.000
290025.000,275542.400,712037.500,521415.600,711828.800,550499.200,254637.600,402163.400,0.000
290292.800,275793.600,712055.900,521775.800,711846.900,550489.400,254914.200,402270.700,0.000
290457.300,275943.800,712063.700,522069.400,711854.800,550453.400,255144.800,402356.100,0.000
290139.300,275643.000,712038.400,521569.900,711829.400,550026.200,254820.500,401995.800,0.000
289964.100,275487.600,712029.900,521151.000,711820.900,549655.300,254561.500,401673.700,0.000
290217.600,275729.600,712052.100,521447.400,711843.000,549629.900,254798.500,401753.200,0.000
290459.200,275953.800,712069.700,521847.500,711860.800,549653.300,255105.200,401904.000,0.000
290218.600,275723.200,712050.300,521478.200,711841.300,549299.700,254875.800,401626.400,0.000
289970.800,275495.000,712034.400,520957.000,711825.400,548880.200,254547.100,401249.700,0.000
290155.000,275669.800,712050.400,521128.300,711841.800,548791.300,254695.700,401253.400,0.000
290426.400,275921.400,712066.900,521568.300,711858.400,548825.600,255025.500,401415.300,0.000
290249.500,275750.200,712050.100,521328.000,711841.700,548528.600,254879.300,401204.100,0.000
