EEG 1, EEG 2, EEG 3, EEG 4, EEG 5, EEG 6, EEG 7, EEG 8, TRIG
620118.600,-750000.100,23545.420,283497.600,48378.480,317652.200,276415.200,-252705.400,0.000
613622.600,-750000.100,-318128.000,216713.000,-192078.300,444520.300,62917.390,-242070.000,0.000
742169.300,-346352.000,-389151.300,454724.900,-398002.200,573787.800,-359986.200,-237378.800,0.000
750000.100,254593.800,518786.200,468160.900,-43880.410,579005.800,-241327.500,-39873.910,0.000
750000.100,665982.100,750000.100,495741.000,345301.100,719843.100,293441.700,316440.600,0.000
750000.100,673860.900,750000.100,750000.100,518046.300,750000.100,517761.700,456151.100,0.000
750000.100,674454.200,750000.100,750000.100,715766.400,750000.100,605002.200,548837.300,0.000
750000.100,670320.900,679865.600,750000.100,673296.200,750000.100,611840.300,639608.700,0.000
750000.100,732148.100,750000.100,750000.100,659123.800,750000.100,589406.800,639391.300,0.000
750000.100,750000.100,750000.100,750000.100,676592.200,750000.100,592286.800,750000.100,0.000
750000.100,750000.100,750000.100,750000.100,750000.100,750000.100,729074.100,750000.100,0.000
750000.100,750000.100,750000.100,750000.100,750000.100,750000.100,750000.100,750000.100,0.000
750000.100,750000.100,750000.100,750000.100,750000.100,750000.100,750000.100,750000.100,0.000
750000.100,750000.100,750000.100,750000.100,750000.100,750000.100,750000.100,750000.100,0.000
750000.100,750000.100,750000.100,750000.100,750000.100,750000.100,750000.100,750000.100,0.000
750000.100,750000.100,750000.100,750000.100,750000.100,750000.100,750000.100,750000.100,0.000
750000.100,750000.100,750000.100,750000.100,750000.100,750000.100,750000.100,750000.100,0.000
750000.100,750000.100,750000.100,750000.100,750000.100,750000.100,750000.100,750000.100,0.000
750000.100,750000.100,750000.100,750000.100,750000.100,750000.100,750000.100,750000.100,0.000
750000.100,750000.100,750000.100,750000.100,750000.100,750000.100,750000.100,750000.100,0.000
750000.100,734217.600,750000.100,750000.100,750000.100,750000.100,750000.100,750000.100,0.000
750000.100,707509.800,750000.100,750000.100,750000.100,750000.100,750000.100,750000.100,0.000
744562.900,683146.600,750000.100,750000.100,750000.100,750000.100,750000.100,750000.100,0.000
720371.400,661572.600,750000.100,750000.100,750000.100,750000.100,750000.100,750000.100,0.000
698438.100,642031.600,750000.100,750000.100,750000.100,750000.100,750000.100,750000.100,0.000
677599.100,623470.900,750000.100,750000.100,750000.100,750000.100,750000.100,750000.100,0.000
658050.500,606061.500,750000.100,750000.100,750000.100,750000.100,750000.100,750000.100,0.000
640593.300,590535.900,750000.100,750000.100,750000.100,750000.100,750000.100,750000.100,0.000
624822.600,576522.900,750000.100,750000.100,750000.100,750000.100,750000.100,750000.100,0.000
609670.600,563068.800,750000.100,750000.100,750000.100,750000.100,750000.100,750000.100,0.000
595143.000,550165.300,750000.100,750000.100,750000.100,750000.100,750000.100,750000.100,0.000
582154.300,538654.900,750000.100,750000.100,750000.100,750000.100,750000.100,750000.100,0.000
570478.300,528309.300,750000.100,750000.100,750000.100,750000.100,750000.100,750000.100,0.000
559205.900,518310.500,750000.100,750000.100,750000.100,750000.100,750000.100,750000.100,0.000
548054.000,508412.600,750000.100,750000.100,750000.100,750000.100,750000.100,750000.100,0.000
538018.900,499523.600,750000.100,750000.100,750000.100,750000.100,750000.100,750000.100,0.000
529118.200,491647.200,750000.100,750000.100,750000.100,750000.100,750000.100,750000.100,0.000
520577.400,484087.700,750000.100,750000.100,750000.100,750000.100,750000.100,750000.100,0.000
511968.000,476462.300,750000.100,750000.100,750000.100,750000.100,750000.100,750000.100,0.000
504063.100,469469.000,750000.100,750000.100,750000.100,750000.100,750000.100,750000.100,0.000
497125.700,463343.500,750000.100,750000.100,750000.100,750000.100,750000.100,750000.100,0.000
490518.000,457501.800,750000.100,750000.100,750000.100,750000.100,750000.100,750000.100,0.000
483696.400,451457.000,750000.100,750000.100,750000.100,750000.100,750000.100,750000.100,0.000
477327.000,445824.700,750000.100,750000.100,750000.100,750000.100,750000.100,750000.100,0.000
471833.800,440981.700,750000.100,750000.100,750000.100,750000.100,750000.100,750000.100,0.000
466662.800,436412.700,750000.100,750000.100,750000.100,750000.100,750000.100,750000.100,0.000
461221.000,431593.300,750000.100,750000.100,750000.100,750000.100,750000.100,750000.100,0.000
456008.700,426991.000,750000.100,750000.100,750000.100,750000.100,750000.100,750000.100,0.000
451543.300,423058.100,750000.100,750000.100,750000.100,750000.100,750000.100,750000.100,0.000
447456.300,419450.700,750000.100,750000.100,750000.100,750000.100,750000.100,750000.100,0.000
443129.500,415624.700,750000.100,750000.100,750000.100,750000.100,750000.100,750000.100,0.000
438705.100,411708.300,750000.100,750000.100,750000.100,750000.100,750000.100,750000.100,0.000
435007.000,408454.100,750000.100,750000.100,750000.100,750000.100,750000.100,750000.100,0.000
431815.000,405652.100,750000.100,750000.100,750000.100,750000.100,750000.100,750000.100,0.000
428362.800,402607.200,750000.100,750000.100,750000.100,750000.100,750000.100,750000.100,0.000
424700.300,399375.300,750000.100,750000.100,750000.100,750000.100,750000.100,750000.100,0.000
421580.200,396634.900,750000.100,750000.100,750000.100,750000.100,750000.100,750000.100,0.000
418936.700,394313.400,750000.100,750000.100,750000.100,750000.100,750000.100,750000.100,0.000
416170.700,391878.000,750000.100,750000.100,750000.100,750000.100,750000.100,750000.100,0.000
413077.400,389147.600,750000.100,750000.100,750000.100,750000.100,750000.100,750000.100,0.000
410405.000,386804.000,750000.100,750000.100,750000.100,750000.100,750000.100,750000.100,0.000
408299.400,384969.800,750000.100,750000.100,750000.100,750000.100,750000.100,750000.100,0.000
406140.000,383077.100,750000.100,750000.100,750000.100,750000.100,750000.100,750000.100,0.000
403492.500,380736.800,750000.100,750000.100,750000.100,750000.100,750000.100,750000.100,0.000
401142.400,378673.400,750000.100,750000.100,750000.100,750000.100,750000.100,750000.100,0.000
399362.800,377124.500,750000.100,750000.100,750000.100,750000.100,750000.100,750000.100,0.000
397653.600,375635.800,750000.100,750000.100,750000.100,750000.100,750000.100,750000.100,0.000
395492.700,373732.800,750000.100,750000.100,750000.100,750000.100,750000.100,750000.100,0.000
393415.800,371908.600,750000.100,750000.100,750000.100,750000.100,750000.100,750000.100,0.000
391896.100,370587.200,750000.100,750000.100,750000.100,750000.100,750000.100,750000.100,0.000
390541.100,369413.400,750000.100,750000.100,750000.100,750000.100,750000.100,750000.100,0.000
388743.200,367835.300,750000.100,750000.100,750000.100,750000.100,750000.100,750000.100,0.000
386888.000,366209.600,750000.100,750000.100,750000.100,750000.100,750000.100,750000.100,0.000
385559.900,365062.800,750000.100,750000.100,750000.100,750000.100,750000.100,750000.100,0.000
384492.800,364148.800,749457.500,749519.100,749222.800,749719.900,749621.900,750000.100,0.000
383053.600,362892.700,747786.700,747848.100,747552.600,748048.400,747951.100,748503.300,0.000
381399.700,361445.000,746177.600,746239.100,745944.400,746439.100,746342.500,746893.500,0.000
380183.600,360393.500,744657.500,744718.900,744425.300,744918.600,744822.200,745372.700,0.000
379312.400,359650.500,743222.600,743283.800,742990.900,743483.300,743387.300,743936.800,0.000
378167.200,358656.800,741833.000,741894.300,741602.100,742093.300,741998.000,742546.100,0.000
376680.900,357356.500,740483.600,740545.000,740252.800,740742.800,740648.000,741195.400,0.000
375573.200,356404.000,739218.900,739280.100,738988.700,739477.800,739383.300,739929.900,0.000
374896.000,355837.200,738032.600,738094.300,737803.800,738291.600,738197.500,738742.900,0.000
374022.400,355085.700,736878.300,736939.600,736650.100,737136.700,737043.400,737587.700,0.000
372698.000,353926.400,735743.600,735804.800,735515.500,736001.600,735908.700,736451.900,0.000
371644.400,353016.500,734679.700,734740.400,734452.000,734937.100,734844.500,735387.600,0.000
371052.300,352523.200,733686.500,733747.400,733459.200,733944.000,733851.200,734393.900,0.000
370400.300,351975.000,732729.600,732791.200,732503.100,732987.300,732895.100,733436.300,0.000
369263.900,350983.200,731785.000,731846.100,731558.600,732042.100,731949.800,732490.400,0.000
368269.500,350126.100,730893.100,730954.800,730667.600,731150.300,731058.400,731598.200,0.000
367764.100,349710.700,730067.600,730129.100,729842.900,730324.600,730232.800,730772.500,0.000
367287.300,349310.100,729273.100,729334.100,729048.600,729529.600,729438.400,729977.200,0.000
366302.100,348445.200,728473.000,728533.900,728248.300,728729.100,728637.900,729176.400,0.000
365337.000,347606.400,727717.100,727778.300,727493.100,727973.100,727881.800,728419.800,0.000
364855.400,347208.100,727021.300,727082.400,726797.800,727277.300,727186.100,727723.800,0.000
364517.100,346932.600,726359.400,726420.600,726136.100,726615.400,726524.600,727061.700,0.000
363749.500,346265.100,725699.600,725760.800,725476.500,725955.300,725864.800,726401.100,0.000
362819.400,345452.700,725059.100,725120.400,724836.500,725315.100,725224.600,725760.400,0.000
362347.500,345058.900,724474.900,724535.900,724252.400,724730.300,724640.300,725175.600,0.000
362129.200,344894.500,723931.400,723991.900,723709.800,724186.800,724096.600,724631.200,0.000
361539.100,344385.200,723385.400,723445.800,723163.600,723640.100,723550.300,724084.600,0.000
360656.200,343609.900,722843.300,722903.600,722621.500,723097.800,723008.400,723542.400,0.000
360170.900,343202.800,722348.400,722408.900,722126.900,722602.800,722513.800,723046.900,0.000
359992.200,343070.700,721887.300,721947.900,721665.800,722141.200,722052.500,722585.400,0.000
359546.500,342694.600,721427.800,721488.100,721206.200,721681.400,721592.400,722125.300,0.000
358721.600,341976.000,720969.600,721030.300,720748.300,721223.300,721133.800,721666.900,0.000
358205.800,341539.900,720551.900,720612.500,720331.100,720805.400,720716.000,721249.300,0.000
358088.700,341465.700,720173.600,720234.300,719953.400,720427.500,720338.300,720871.300,0.000
357821.600,341252.900,719802.800,719863.800,719582.500,720056.500,719967.500,720499.900,0.000
357064.500,340593.500,719415.300,719476.700,719195.400,719668.900,719579.900,720112.100,0.000
356503.500,340114.400,719055.100,719116.300,718835.600,719308.800,719219.600,719751.700,0.000
356387.700,340035.800,718734.300,718795.800,718515.200,718988.100,718899.000,719430.700,0.000
356220.200,339910.000,718424.100,718485.400,718204.600,718677.800,718588.500,719120.400,0.000
355570.800,339345.400,718102.400,718163.600,717882.600,718355.900,718266.800,718798.500,0.000
354978.200,338836.100,717794.800,717855.900,717575.800,718048.200,717959.300,718490.500,0.000
354877.000,338774.200,717533.900,717595.000,717315.000,717786.900,717698.200,718229.300,0.000
354795.400,338723.300,717275.000,717335.900,717056.100,717527.900,717439.100,717970.200,0.000
354254.200,338253.900,717002.000,717062.900,716783.000,717254.900,717165.900,717697.200,0.000
353636.000,337721.100,716736.600,716797.900,716517.800,716989.800,716900.600,717431.800,0.000
353484.300,337611.300,716513.900,716575.300,716295.800,716767.100,716677.900,717209.300,0.000
353482.900,337634.400,716301.900,716363.100,716083.600,716554.900,716465.400,716996.700,0.000
353044.500,337256.800,716069.600,716130.600,715851.200,716322.200,716232.700,716763.800,0.000
352445.000,336741.500,715846.500,715907.600,715628.600,716099.800,716009.800,716540.900,0.000
352253.800,336594.100,715655.500,715716.600,715437.600,715908.600,715818.600,716349.800,0.000
352299.400,336653.800,715481.900,715542.700,715263.800,715734.600,715644.300,716175.700,0.000
351936.400,336340.200,715287.900,715348.300,715069.800,715540.100,715449.900,715981.300,0.000
351309.100,335793.800,715088.900,715149.400,714870.900,715341.400,715251.000,715782.400,0.000
351154.700,335682.000,714933.000,714993.400,714715.400,715185.600,715095.000,715626.700,0.000
351219.300,335763.400,714790.600,714851.400,714573.300,715043.700,714952.600,715484.200,0.000
351031.800,335613.400,714632.100,714692.300,714414.400,714884.400,714793.400,715324.800,0.000
350416.000,335071.700,714457.800,714518.200,714240.600,714709.900,714618.900,715150.400,0.000
350099.100,334808.700,714318.800,714379.300,714101.900,714570.900,714479.600,715011.700,0.000
350199.900,334924.800,714207.500,714267.800,713990.100,714459.500,714367.500,714900.100,0.000
350130.300,334877.300,714078.600,714139.100,713861.200,714330.500,714238.500,714771.400,0.000
349585.200,334400.300,713929.400,713990.100,713712.100,714181.800,714089.300,714622.300,0.000
349175.300,334051.100,713799.900,713860.700,713582.800,714052.300,713959.300,714492.400,0.000
349236.100,334127.100,713705.400,713766.500,713488.400,713957.500,713864.500,714398.200,0.000
349253.700,334157.300,713599.700,713661.000,713382.500,713851.600,713758.600,714292.300,0.000
348781.500,333745.300,713474.400,713535.500,713257.400,713726.900,713632.900,714166.800,0.000
348343.500,333370.900,713363.100,713423.800,713146.000,713615.400,713520.600,714055.300,0.000
348384.300,333434.200,713287.800,713348.700,713071.100,713540.100,713445.200,713980.200,0.000
348479.700,333537.000,713206.100,713266.800,712989.600,713458.900,713363.300,713898.800,0.000
348075.700,333180.400,713091.800,713152.300,712875.100,713344.200,713248.600,713784.200,0.000
347583.300,332750.800,712988.400,713048.900,712771.900,713240.600,713144.900,713680.600,0.000
347544.200,332734.700,712918.300,712978.900,712701.900,713170.400,713074.300,713610.100,0.000
347710.800,332907.900,712860.400,712921.000,712643.800,713112.700,713015.800,713552.300,0.000
347462.200,332696.200,712778.300,712838.600,712561.400,713030.300,712930.900,713469.600,0.000
346964.700,332259.000,712687.900,712748.400,712471.300,712939.900,712836.300,713378.100,0.000
346828.600,332151.000,712617.800,712678.400,712401.400,712870.100,712762.400,713307.100,0.000
346989.300,332310.200,712565.800,712626.800,712349.800,712818.300,712707.300,713254.800,0.000
346823.200,332170.400,712495.100,712555.700,712278.900,712747.600,712632.000,713182.900,0.000
346311.400,331721.100,712411.800,712472.600,712195.800,712664.700,712544.100,713098.400,0.000
346121.100,331564.700,712351.500,712412.100,712136.000,712604.400,712479.300,713036.900,0.000
346306.900,331748.300,712318.300,712379.400,712103.100,712570.900,712442.400,713002.700,0.000
346292.600,331750.100,712274.300,712335.200,712058.900,712526.900,712394.200,712957.800,0.000
345773.700,331291.000,712191.300,712252.100,711976.300,712444.100,712306.100,712873.600,0.000
345477.500,331036.900,712125.100,712185.400,711909.600,712377.800,712234.600,712806.100,0.000
345646.200,331209.200,712097.600,712157.900,711882.000,712350.400,712203.100,712778.100,0.000
345709.700,331277.800,712061.600,712121.500,711846.100,712314.600,712162.600,712741.400,0.000
345259.100,330878.700,711993.400,712053.400,711778.100,712246.500,712088.500,712671.600,0.000
344928.800,330594.500,711943.000,712002.700,711727.300,712195.200,712031.900,712619.300,0.000
345028.500,330696.900,711913.800,711973.600,711698.400,712165.900,711997.800,712589.300,0.000
345157.100,330827.700,711886.400,711946.300,711671.000,712138.700,711964.900,712561.100,0.000
344756.400,330474.200,711823.600,711883.500,711607.900,712075.900,711895.800,712497.000,0.000
344360.200,330130.700,711769.500,711829.600,711554.700,712022.600,711834.900,712441.900,0.000
344445.700,330222.800,711753.100,711813.100,711538.100,712006.300,711812.200,712424.200,0.000
344654.300,330425.800,711742.100,711802.100,711526.700,711994.900,711795.100,712412.600,0.000
344363.800,330162.600,711698.700,711758.900,711483.400,711951.100,711742.800,712367.800,0.000
343917.700,329767.700,711646.800,711707.100,711432.000,711899.200,711677.500,712314.600,0.000
343899.100,329767.200,711619.400,711679.300,711404.800,711872.200,711591.100,712285.500,0.000
344091.600,329950.100,711599.400,711659.400,711385.800,711853.300,710909.200,712258.800,0.000
343917.300,329804.200,711566.100,711626.300,711352.400,711819.900,708979.600,712219.100,0.000
343465.500,329410.300,711520.200,711580.200,711306.100,711773.800,706380.900,712169.900,0.000
343421.400,329383.600,711510.400,711570.500,711297.000,711764.300,704209.700,712158.400,0.000
343618.900,329565.800,711495.700,711556.100,711282.900,711750.500,702458.100,712143.100,0.000
343503.700,329466.800,711459.900,711520.100,711246.800,711714.400,700510.100,712106.100,0.000
343037.100,329051.200,711415.100,711475.600,711201.900,711669.600,698176.400,712059.800,0.000
342913.400,328955.200,711401.100,711461.300,711187.700,711655.300,696143.700,712044.400,0.000
343131.900,329164.000,711396.400,711456.600,711182.800,711650.400,694519.500,712038.900,0.000
343139.400,329177.500,711375.800,711435.900,711162.600,711630.300,692778.100,712017.900,0.000
342680.800,328766.100,711330.600,711390.400,711117.500,711585.100,690542.500,711972.200,0.000
342447.300,328566.000,711306.400,711366.500,711093.300,711560.900,688459.100,711947.400,0.000
342661.800,328775.500,711312.200,711372.800,711099.900,711567.600,686872.400,711950.600,0.000
342779.100,328888.300,711305.300,711365.700,711093.000,711560.600,685294.300,711941.300,0.000
342350.000,328501.700,711259.900,711319.800,711047.000,711514.600,683406.400,711900.100,0.000
341978.900,328170.200,711218.000,711277.900,711005.100,711472.500,681581.800,711857.900,0.000
342120.400,328311.600,711218.600,711278.900,711005.600,711473.100,680289.900,711858.500,0.000
342310.400,328492.800,711219.700,711279.700,711006.400,711473.600,679130.900,711859.600,0.000
341998.600,328218.100,711190.900,711250.900,710977.800,711445.300,677477.800,711831.200,0.000
341615.100,327882.000,711157.500,711217.800,710944.600,711411.800,675662.300,711797.900,0.000
341682.100,327953.000,711154.400,711214.100,710941.200,711408.800,674299.100,711794.800,0.000
341879.700,328134.300,711150.400,711210.600,710937.800,711404.400,673151.300,711791.100,0.000
341662.600,327943.800,711128.400,711188.800,710915.600,711382.300,671616.500,711769.100,0.000
341249.400,327578.900,711100.700,711160.500,710887.800,711354.900,669811.400,711741.200,0.000
341229.000,327568.100,711089.500,711149.100,710876.400,711343.600,668377.400,711729.800,0.000
341482.000,327807.000,711098.200,711158.300,710885.400,711352.700,667299.400,711738.900,0.000
341360.900,327701.400,711083.600,711143.900,710871.200,711337.900,665899.700,711724.600,0.000
340918.900,327310.100,711052.200,711112.300,710839.700,711306.300,664106.700,711693.300,0.000
340847.800,327260.800,711043.400,711103.600,710831.100,711297.900,662631.200,711684.800,0.000
341077.200,327480.500,711047.800,711107.800,710835.300,711302.000,661535.100,711689.500,0.000
341028.400,327438.600,711034.600,711094.300,710821.700,711288.800,660238.000,711675.900,0.000
340570.700,327028.200,710996.900,711056.700,710784.300,711251.300,658469.100,711638.700,0.000
340417.200,326904.500,710988.600,711048.600,710776.300,711242.900,656940.000,711630.600,0.000
340670.800,327145.600,711008.100,711068.300,710795.800,711262.400,655879.200,711650.300,0.000
340731.100,327204.600,711001.300,711061.600,710788.400,711255.800,654704.500,711643.800,0.000
340319.900,326833.100,710970.100,711029.900,710757.400,711224.500,653023.500,711612.800,0.000
340105.200,326649.600,710962.900,711022.700,710750.300,711217.200,651461.600,711605.800,0.000
340262.600,326798.100,710962.900,711022.500,710750.300,711217.300,650312.900,711605.400,0.000
340405.200,326930.000,710963.800,711023.700,710751.400,711218.100,649237.500,711606.800,0.000
340053.900,326612.500,710938.200,710997.900,710725.900,711192.700,647660.600,711581.600,0.000
339752.500,326350.500,710923.000,710983.400,710711.100,711177.600,646047.800,711566.600,0.000
339910.000,326506.600,710937.300,710997.300,710724.700,711191.300,644912.800,711580.700,0.000
340155.800,326740.800,710955.000,711014.800,710742.400,711209.500,643959.100,711598.600,0.000
339825.900,326439.800,710917.100,710976.900,710704.800,711171.800,642438.600,711561.200,0.000
339426.800,326083.200,710888.400,710948.100,710676.300,711143.100,640772.800,711532.900,0.000
339523.600,326186.400,710900.800,710960.600,710688.300,711155.400,639596.600,711545.400,0.000
339779.100,326422.800,710913.600,710973.600,710700.900,711168.300,638660.300,711558.300,0.000
339594.700,326256.700,710898.800,710958.900,710686.300,711153.300,637325.800,711543.800,0.000
339174.200,325876.800,710870.600,710930.400,710658.000,711125.200,635673.700,711515.400,0.000
339191.400,325900.900,710877.600,710937.100,710664.700,711132.100,634427.300,711522.600,0.000
339443.100,326133.300,710887.200,710947.100,710674.600,711141.700,633496.400,711532.600,0.000
339355.600,326055.700,710875.400,710935.400,710662.900,711130.200,632285.600,711521.400,0.000
338920.800,325669.300,710851.400,710911.100,710639.100,711106.200,630667.800,711497.600,0.000
338825.700,325589.800,710846.200,710905.300,710633.700,711100.800,629331.000,711492.000,0.000
339096.400,325841.400,710863.800,710923.100,710651.300,711118.400,628429.300,711509.900,0.000
339130.700,325879.200,710864.100,710923.600,710651.800,711118.900,627364.900,711510.400,0.000
338694.200,325485.200,710834.100,710893.400,710621.800,711088.800,625783.300,711480.600,0.000
338518.200,325333.200,710824.300,710883.800,710611.400,711078.600,624389.200,711471.100,0.000
338769.300,325568.100,710842.800,710902.100,710630.000,711097.000,623480.700,711489.900,0.000
338904.700,325693.400,710852.500,710911.900,710640.100,711106.800,622538.100,711499.800,0.000
338504.400,325326.300,710823.100,710882.900,710611.100,711077.800,621038.500,711471.100,0.000
338254.400,325110.000,710813.900,710873.100,710601.600,711068.700,619610.900,711461.800,0.000
338452.300,325301.200,710831.800,710890.900,710619.500,711086.400,618661.600,711479.700,0.000
338627.000,325466.500,710836.600,710895.800,710624.200,711091.600,617768.700,711484.500,0.000
338294.500,325165.300,710812.300,710871.300,710599.400,711066.600,616372.400,711460.200,0.000
337977.000,324886.400,710796.900,710856.100,710584.300,711051.400,614904.200,711445.500,0.000
338104.900,325010.600,710806.100,710864.900,710593.600,711060.000,613888.600,711454.400,0.000
338349.600,325235.700,710821.800,710880.900,710609.300,711075.600,613078.600,711470.200,0.000
338103.400,325010.600,710803.500,710862.200,710590.500,711057.100,611802.100,711451.900,0.000
337740.200,324689.000,710787.600,710846.200,710574.800,711041.100,610324.500,711436.100,0.000
337837.000,324788.700,710806.300,710864.900,710593.600,711059.800,609297.300,711455.100,0.000
338096.800,325023.500,710820.400,710878.900,710607.300,711074.600,608512.900,711469.600,0.000
337920.400,324858.600,710801.100,710859.700,710587.800,711055.200,607337.300,711450.500,0.000
337508.100,324489.800,710777.400,710836.300,710564.300,711031.300,605851.900,711426.800,0.000
337503.800,324495.900,710783.300,710842.200,710570.300,711037.300,604735.400,711433.100,0.000
337804.100,324774.000,710807.100,710865.600,710593.800,711060.800,603996.400,711456.900,0.000
337757.800,324731.000,710802.100,710860.100,710588.600,711055.400,602976.000,711451.900,0.000
337314.800,324330.000,710771.200,710829.700,710558.300,711025.500,601502.100,711421.300,0.000
337229.800,324264.300,710773.500,710832.400,710561.400,711028.200,600321.100,711424.400,0.000
337507.900,324523.600,710793.900,710852.600,710581.900,711048.200,599567.500,711445.100,0.000
337572.500,324584.000,710797.400,710856.100,710585.100,711051.600,598677.300,711448.600,0.000
337161.800,324212.900,710773.500,710831.900,710560.600,711027.600,597271.200,711424.800,0.000
336971.300,324043.900,710765.700,710823.900,710552.700,711019.600,596012.900,711416.800,0.000
337212.400,324269.700,710782.900,710841.600,710570.500,711037.200,595226.200,711434.600,0.000
337371.300,324416.700,710794.700,710853.400,710581.900,711048.900,594442.000,711446.800,0.000
336992.400,324070.100,710769.100,710827.400,710555.800,711022.900,593103.700,711421.100,0.000
336722.400,323829.500,710755.800,710814.200,710542.900,711009.600,591791.600,711407.700,0.000
336918.900,324017.300,710774.300,710832.200,710561.400,711028.200,590969.000,711426.400,0.000
337138.300,324216.600,710787.800,710845.900,710574.900,711041.900,590254.200,711440.300,0.000
336842.300,323943.300,710767.600,710826.000,710554.800,711021.600,589033.100,711420.300,0.000
336520.500,323656.600,710752.500,710810.600,710539.900,711006.400,587699.900,711405.800,0.000
336653.000,323786.000,710768.500,710826.800,710555.600,711022.400,586822.400,711422.000,0.000
336899.900,324011.300,710782.200,710840.900,710569.900,711037.000,586148.100,711435.600,0.000
336696.800,323828.300,710768.400,710826.600,710556.000,711022.700,585044.900,711421.800,0.000
336306.300,323479.900,710745.300,710802.800,710532.200,710999.300,583673.000,711398.500,0.000
336353.000,323530.800,710752.900,710810.800,710540.200,711006.900,582721.000,711406.400,0.000
336650.300,323804.200,710776.300,710834.300,710563.700,711030.200,582099.400,711430.300,0.000
336537.600,323699.500,710765.300,710823.500,710552.600,711019.500,581117.800,711419.400,0.000
336127.200,323332.600,710744.000,710802.100,710531.300,710998.100,579765.600,711398.100,0.000
336103.400,323320.400,710750.400,710807.900,710537.600,711004.000,578757.100,711404.300,0.000
336389.800,323583.800,710769.300,710827.400,710556.300,711023.300,578127.800,711423.700,0.000
336379.700,323575.600,710768.600,710826.400,710555.600,711022.700,577271.300,711423.200,0.000
335982.300,323220.000,710747.800,710804.900,710534.400,711001.500,575963.100,711402.300,0.000
335850.400,323106.500,710743.100,710799.800,710529.700,710996.600,574863.800,711397.500,0.000
336123.800,323357.200,710764.800,710821.600,710551.500,711018.300,574228.400,711419.300,0.000
336213.100,323438.500,710767.900,710825.000,710554.700,711021.300,573476.700,711422.400,0.000
335817.600,323079.600,710742.500,710799.600,710529.100,710996.000,572209.600,711397.300,0.000
335611.900,322897.700,710733.000,710790.000,710519.800,710986.900,571052.100,711388.400,0.000
335867.400,323135.400,710757.300,710814.400,710543.800,711010.900,570393.800,711412.800,0.000
336063.300,323314.300,710775.100,710832.100,710561.800,711028.600,569764.300,711430.700,0.000
335698.700,322980.700,710745.800,710802.900,710532.600,710999.600,568558.300,711401.700,0.000
335417.700,322732.200,710731.600,710788.800,710518.600,710985.400,567356.300,711387.800,0.000
335595.500,322900.400,710745.400,710802.500,710532.100,710999.000,566630.500,711401.400,0.000
335834.300,323118.300,710760.600,710817.900,710547.700,711014.600,566048.900,711416.800,0.000
335571.400,322875.300,710746.400,710803.900,710533.500,711000.400,564972.900,711402.900,0.000
335243.400,322583.600,710731.800,710788.800,710518.800,710985.700,563746.400,711388.400,0.000
335354.100,322693.100,710743.400,710800.400,710530.400,710997.300,562959.800,711400.100,0.000
335624.100,322939.200,710760.400,710817.100,710547.500,711013.900,562414.600,711417.300,0.000
335453.200,322780.100,710751.400,710807.900,710538.600,711004.600,561458.400,711408.400,0.000
335075.600,322441.100,710732.100,710788.400,710519.000,710985.400,560216.200,711389.400,0.000
335116.600,322484.800,710739.400,710795.900,710526.400,710992.800,559367.100,711396.500,0.000
335415.400,322757.800,710759.500,710816.200,710546.800,711012.900,558855.100,711417.300,0.000
335328.800,322671.800,710751.600,710808.300,710538.800,711005.100,558006.300,711409.200,0.000
334918.300,322298.300,710727.900,710784.400,710514.900,710981.500,556758.400,711385.300,0.000
334896.200,322289.100,710736.100,710792.800,710523.400,710989.800,555862.300,711394.200,0.000
335179.400,322553.800,710754.200,710811.000,710541.500,711007.700,555343.600,711412.500,0.000
335177.700,322547.800,710752.300,710808.800,710539.400,711005.800,554600.600,711410.800,0.000
334767.400,322169.400,710730.400,710786.300,710517.100,710983.900,553382.400,711388.800,0.000
334679.600,322100.900,710737.100,710793.200,710524.100,710990.400,552429.600,711396.000,0.000
334980.500,322387.500,710760.600,710816.300,710547.300,711013.900,551936.700,711419.100,0.000
335061.600,322462.500,710758.700,710814.200,710545.600,711011.900,551302.100,711417.100,0.000
334636.800,322061.900,710733.300,710788.800,710519.600,710986.100,550103.800,711391.900,0.000
334431.700,321876.400,710728.100,710783.600,710514.800,710980.800,549041.400,711387.100,0.000
334704.800,322138.700,710749.800,710805.300,710536.800,711002.600,548514.900,711408.900,0.000
334907.500,322328.800,710763.000,710818.800,710549.800,711016.200,548008.100,711422.200,0.000
334551.400,321994.000,710742.900,710798.200,710529.400,710996.100,546906.900,711402.100,0.000
334251.300,321718.600,710727.100,710782.000,710513.600,710980.400,545771.400,711386.500,0.000
334451.800,321912.900,710743.800,710798.800,710530.500,710997.300,545172.900,711403.300,0.000
334722.200,322167.700,710763.500,710818.800,710550.400,711016.800,544743.100,711423.300,0.000
334439.700,321899.200,710746.100,710801.300,710532.600,710999.200,543753.400,711405.900,0.000
334083.900,321576.600,710727.500,710782.400,710514.000,710981.100,542580.900,711387.300,0.000
334221.900,321716.200,710741.600,710796.900,710528.600,710995.200,541914.600,711401.900,0.000
334541.000,322019.700,710765.100,710820.100,710552.000,711018.100,541533.400,711425.400,0.000
334363.200,321852.900,710754.800,710809.600,710541.400,711007.700,540677.600,711415.300,0.000
333934.000,321455.100,710728.800,710783.800,710515.600,710982.300,539466.100,711390.300,0.000
333975.700,321502.100,710736.300,710791.300,710523.200,710989.700,538714.200,711397.600,0.000
334305.800,321812.400,710760.600,710815.800,710547.600,711014.100,538343.900,711422.100,0.000
334234.900,321743.900,710752.800,710807.700,710539.600,711006.400,537614.300,711413.900,0.000
333809.200,321347.800,710732.600,710787.100,710519.300,710985.900,536440.800,711394.000,0.000
333766.500,321318.100,710736.100,710790.400,710522.800,710989.400,535604.400,711397.300,0.000
334085.900,321624.500,710759.500,710813.800,710546.000,711012.600,535221.300,711420.800,0.000
334122.800,321656.300,710762.300,710816.600,710548.900,711015.600,534617.100,711424.100,0.000
333689.800,321250.700,710736.900,710790.800,710523.000,710990.000,533468.600,711398.800,0.000
333557.600,321133.000,710734.800,710788.600,710521.100,710988.100,532552.600,711396.900,0.000
333854.200,321414.500,710756.100,710810.400,710542.700,711009.600,532139.300,711418.400,0.000
334005.700,321555.800,710767.700,710821.600,710554.500,711020.600,531660.800,711429.600,0.000
333613.600,321184.700,710746.000,710799.600,710532.300,710998.800,530580.800,711408.100,0.000
333384.700,320977.400,710736.100,710789.900,710522.500,710989.400,529582.300,711398.500,0.000
333619.400,321199.800,710751.400,710805.400,710538.400,711004.900,529099.700,711413.900,0.000
333848.900,321414.300,710765.500,710819.300,710552.400,711019.100,528702.600,711428.200,0.000
333516.600,321102.100,710742.900,710796.500,710529.600,710996.400,527719.200,711405.800,0.000
333220.000,320829.900,710730.300,710783.800,710517.100,710983.800,526672.700,711393.600,0.000
333412.400,321014.300,710748.500,710801.800,710534.800,711001.800,526144.600,711411.700,0.000
333685.700,321266.400,710763.900,710817.800,710550.400,711017.400,525797.900,711427.400,0.000
333438.300,321029.800,710747.600,710801.300,710533.900,711001.100,524930.900,711410.800,0.000
333071.100,320692.900,710730.800,710783.900,710516.600,710984.300,523837.700,711394.200,0.000
333199.100,320821.100,710749.900,710803.500,710536.300,711003.800,523251.300,711413.900,0.000
333517.800,321123.100,710771.300,710825.000,710557.800,711024.900,522948.200,711435.100,0.000
333355.400,320966.900,710754.100,710807.900,710540.700,711007.900,522185.400,711418.100,0.000
332938.100,320578.500,710727.200,710780.900,710513.600,710980.800,521065.600,711390.900,0.000
332987.000,320632.100,710741.600,710794.700,710528.400,710995.100,520397.600,711405.600,0.000
333326.800,320953.300,710767.200,710820.400,710553.600,711020.600,520110.700,711431.100,0.000
333280.500,320903.600,710759.700,710812.900,710546.300,711013.100,519486.600,711423.900,0.000
332858.500,320509.400,710737.600,710790.700,710524.300,710991.100,518397.700,711402.300,0.000
332793.300,320458.800,710738.900,710791.500,710525.300,710991.900,517615.000,711403.100,0.000
333135.000,320782.700,710768.300,710821.100,710554.700,711021.600,517323.100,711432.600,0.000
333201.300,320843.000,710769.300,710822.300,710555.600,711022.400,516824.600,711433.800,0.000
332776.100,320443.000,710740.700,710793.600,710527.100,710993.900,515756.400,711405.300,0.000
332617.800,320299.400,710733.800,710786.100,710520.300,710986.900,514885.200,711398.200,0.000
332908.500,320572.800,710757.400,710809.600,710543.700,711010.800,514540.000,711421.800,0.000
333101.700,320754.200,710776.600,710829.300,710562.700,711029.700,514181.900,711441.300,0.000
332720.800,320391.300,710749.800,710802.100,710536.100,711003.100,513197.100,711414.900,0.000
332481.200,320174.400,710741.300,710793.400,710527.900,710994.600,512264.900,711406.500,0.000
332707.300,320392.000,710758.700,710810.400,710544.900,711011.400,511850.700,711423.700,0.000
332929.000,320598.800,710768.700,710820.000,710554.900,711021.400,511522.900,711433.400,0.000
332637.400,320324.300,710752.300,710803.000,710539.100,711005.700,510661.200,711417.500,0.000
332331.900,320044.300,710738.900,710788.800,710526.100,710992.800,509679.700,711405.200,0.000
332540.600,320248.700,710763.400,710813.100,710550.400,711017.200,509236.100,711429.700,0.000
332817.800,320508.300,710775.400,710825.600,710562.800,711029.100,508956.700,711441.900,0.000
332577.300,320275.300,710755.100,710804.400,710542.900,711009.300,508172.900,711421.800,0.000
332187.000,319908.400,710729.900,710778.100,710518.100,710984.700,507132.500,711397.300,0.000
332293.800,320015.300,710745.600,710793.200,710533.600,711000.500,506589.800,711413.300,0.000
332623.600,320326.700,710772.400,710819.900,710560.300,711027.000,506372.800,711440.300,0.000
332502.400,320209.600,710761.000,710808.200,710549.600,711015.600,505733.800,711428.800,0.000
332099.600,319836.200,710737.300,710783.600,710526.900,710992.600,504701.000,711406.400,0.000
332131.800,319875.000,710749.600,710795.400,710539.300,711005.400,504077.200,711419.300,0.000
332461.800,320184.100,710776.800,710822.600,710566.400,711032.300,503847.800,711446.100,0.000
332442.600,320161.100,710770.900,710816.400,710560.600,711026.800,503314.900,711440.600,0.000
332028.100,319778.700,710746.000,710790.300,710536.300,711002.400,502305.700,711416.100,0.000
331937.200,319702.100,710742.900,710786.500,710533.000,710999.400,501562.100,711413.300,0.000
332258.300,320007.200,710770.700,710814.600,710560.500,711027.300,501316.100,711440.900,0.000
332360.500,320095.900,710778.300,710822.000,710568.500,711035.100,500927.700,711449.000,0.000
331939.600,319697.400,710747.100,710789.900,710538.100,711004.800,499945.400,711418.500,0.000
331769.700,319550.400,710743.100,710784.500,710533.600,711000.400,499137.600,711414.600,0.000
332042.600,319808.600,710766.200,710807.700,710556.800,711023.600,498837.100,711438.000,0.000
332219.900,319968.200,710773.900,710816.100,710564.800,711031.900,498518.500,711445.900,0.000
331880.900,319648.500,710753.900,710795.100,710545.400,711012.100,497642.700,711426.200,0.000
331637.500,319428.700,710745.600,710785.400,710537.300,711004.000,496771.500,711418.600,0.000
331850.200,319631.600,710763.000,710802.900,710554.600,711021.900,496396.700,711436.100,0.000
332111.100,319875.900,710780.900,710820.800,710572.400,711039.500,496169.100,711454.000,0.000
331826.900,319605.700,710755.900,710795.500,710548.100,711015.200,495376.000,711430.100,0.000
331490.000,319292.500,710737.100,710775.600,710529.700,710996.600,494437.000,711411.700,0.000
331652.200,319452.300,710754.100,710792.100,710546.300,711013.400,494010.900,711428.700,0.000
331951.600,319728.800,710774.300,710812.400,710566.300,711033.200,493810.600,711448.900,0.000
331777.400,319562.600,710764.800,710801.900,710557.300,711024.500,493154.100,711439.600,0.000
331392.900,319210.100,710742.400,710778.400,710535.900,711003.300,492182.600,711418.500,0.000
331479.800,319300.300,710756.200,710791.400,710549.500,711016.600,491676.500,711431.800,0.000
331795.600,319594.800,710776.900,710812.800,710570.600,711037.400,491495.400,711452.800,0.000
331709.200,319505.600,710770.100,710805.700,710563.700,711031.000,490946.300,711445.900,0.000
331296.300,319121.500,710743.700,710777.800,710537.800,711004.800,489968.800,711419.900,0.000
331298.800,319133.800,710750.800,710784.400,710545.300,711012.000,489370.900,711427.300,0.000
331609.500,319425.300,710771.800,710805.400,710566.200,711032.800,489174.600,711448.400,0.000
331631.000,319438.700,710770.700,710804.100,710565.400,711031.800,488743.100,711447.800,0.000
331241.400,319075.700,710749.200,710781.700,710544.300,711011.200,487817.400,711426.800,0.000
331149.300,318997.200,710751.800,710783.600,710547.300,711014.500,487133.900,711429.900,0.000
331451.500,319281.800,710775.900,710807.300,710570.900,711038.000,486925.400,711453.600,0.000
331561.200,319376.400,710777.800,710809.300,710572.600,711039.900,486592.800,711455.900,0.000
331177.600,319014.200,710752.300,710782.900,710548.300,711015.400,485709.400,711431.400,0.000
330987.900,318843.700,710746.100,710775.800,710542.700,711009.600,484941.900,711425.300,0.000
331251.800,319093.600,710767.600,710796.500,710563.700,711030.500,484679.600,711446.300,0.000
331459.200,319286.100,710780.600,710809.200,710576.100,711043.400,484445.700,711459.300,0.000
331144.100,318986.500,710761.300,710789.000,710557.200,711024.600,483654.800,711440.300,0.000
330883.400,318747.700,710751.600,710778.400,710547.900,711015.200,482827.500,711431.100,0.000
331061.900,318919.300,710763.900,710791.100,710560.800,711027.800,482476.100,711444.100,0.000
331327.300,319164.900,710780.100,710807.100,710576.800,711043.600,482304.600,711460.000,0.000
331100.800,318952.200,710767.700,710793.800,710564.300,711031.400,481628.100,711447.900,0.000
330776.900,318653.600,710751.400,710776.400,710548.600,711016.100,480748.800,711432.200,0.000
330884.200,318753.400,710756.000,710780.900,710553.600,711021.000,480315.100,711437.200,0.000
331189.300,319032.500,710775.900,710800.700,710573.500,711040.600,480177.300,711456.900,0.000
331054.100,318899.400,710768.900,710793.200,710566.900,711033.600,479613.900,711450.500,0.000
330684.300,318559.300,710753.700,710776.900,710552.300,711019.400,478716.800,711435.900,0.000
330733.400,318609.300,710761.000,710784.000,710559.800,711027.200,478217.600,711443.600,0.000
331064.600,318917.000,710784.200,710807.100,710582.800,711049.900,478093.300,711467.100,0.000
331017.400,318868.500,710781.100,710804.000,710580.300,711047.000,477638.600,711464.300,0.000
330595.500,318475.800,710752.700,710774.100,710552.300,711019.400,476717.000,711436.400,0.000
330564.200,318454.200,710755.100,710775.600,710554.700,711021.800,476142.800,711439.000,0.000
330885.000,318754.000,710779.800,710800.200,710579.100,711046.200,476001.100,711463.700,0.000
330953.300,318812.100,710784.100,710804.600,710583.600,711050.700,475664.700,711468.100,0.000
330546.700,318431.300,710755.900,710775.100,710555.800,711023.100,474780.700,711440.300,0.000
330416.200,318315.900,710753.300,710771.800,710553.800,711021.000,474111.900,711438.400,0.000
330718.500,318600.300,710777.300,710795.700,710577.800,711044.900,473941.300,711462.300,0.000
330871.000,318736.400,710783.300,710802.100,710584.100,711051.300,473697.000,711468.900,0.000
330486.300,318371.900,710754.100,710771.900,710555.600,711022.500,472866.200,711440.300,0.000
330285.600,318189.500,710747.700,710763.900,710549.400,711016.100,472131.700,711434.100,0.000
330545.100,318435.400,710773.600,710789.900,710575.100,711041.900,471912.700,711459.800,0.000
330790.500,318663.300,710792.600,710809.000,710593.900,711061.000,471764.600,711478.900,0.000
330490.900,318375.800,710772.600,710787.800,710574.500,711041.300,471044.200,711459.400,0.000
330181.400,318088.400,710754.100,710768.300,710556.700,711023.700,470220.700,711441.800,0.000
330371.000,318267.000,710769.700,710783.600,710572.100,711039.100,469919.000,711456.800,0.000
330668.400,318543.400,710790.700,710805.400,710593.200,711060.300,469818.100,711478.100,0.000
330457.300,318339.000,710778.000,710791.600,710580.600,711047.800,469207.900,711466.000,0.000
330100.300,318005.300,710756.300,710768.000,710559.200,711026.800,468348.100,711444.800,0.000
330226.500,318128.500,710773.300,710784.900,710576.600,711044.200,467981.100,711462.100,0.000
330555.000,318435.800,710800.500,710812.500,710603.200,711070.700,467912.600,711488.800,0.000
330396.800,318279.800,710779.700,710790.700,710582.400,711049.700,467375.800,711468.400,0.000
330006.100,317919.200,710756.400,710766.200,710560.300,711027.400,466506.500,711446.100,0.000
330043.600,317962.900,710767.600,710776.900,710571.900,711039.300,466048.100,711457.800,0.000
330374.700,318273.400,710793.600,710803.000,710597.200,711064.600,465971.900,711483.300,0.000
330360.800,318256.000,710790.900,710800.200,710594.600,711062.100,465594.400,711481.000,0.000
329970.300,317888.300,710767.800,710775.800,710572.100,711039.500,464751.400,711458.600,0.000
329904.400,317830.500,710764.700,710771.800,710569.300,711036.800,464184.900,711455.400,0.000
330219.900,318124.000,710790.800,710798.100,710595.300,711062.900,464082.300,711481.600,0.000
330300.200,318189.400,710796.600,710803.900,710601.100,711068.400,463810.200,711487.600,0.000
329920.300,317833.200,710773.900,710779.400,710579.100,711046.100,463003.300,711464.900,0.000
329786.000,317713.300,710770.600,710775.300,710576.100,711043.300,462370.300,711461.900,0.000
330066.800,317973.600,710791.100,710796.100,710596.300,711063.800,462215.200,711482.700,0.000
330230.400,318121.400,710797.400,710802.600,710603.100,711070.300,462027.400,711489.500,0.000
329878.900,317791.700,710774.300,710778.300,710580.600,711047.800,461280.400,711466.900,0.000
329656.000,317588.200,710766.600,710768.800,710573.200,711040.300,460568.300,711459.800,0.000
329904.900,317823.800,710789.400,710791.900,710596.100,711062.900,460370.800,711482.700,0.000
330136.800,318032.700,710803.100,710805.700,710609.200,711076.000,460253.200,711495.600,0.000
329863.700,317770.500,710785.100,710787.000,710591.800,711058.800,459606.300,711478.500,0.000
329570.100,317499.900,710772.400,710772.600,710579.700,711046.900,458836.500,711466.300,0.000
329723.800,317648.600,710784.800,710785.100,710592.500,711059.400,458541.800,711479.100,0.000
330022.000,317923.300,710806.700,710807.100,710613.900,711080.800,458487.500,711500.800,0.000
329851.500,317757.000,710797.600,710797.100,710605.000,711071.600,457967.900,711491.800,0.000
329492.600,317425.200,710777.300,710775.800,710585.700,711052.600,457157.800,711472.500,0.000
329586.300,317518.300,710788.400,710786.700,710596.800,711063.900,456794.000,711483.900,0.000
329888.000,317798.700,710804.200,710802.400,710612.300,711079.400,456730.500,711499.100,0.000
329801.400,317711.600,710798.400,710795.900,710606.600,711073.800,456313.500,711493.500,0.000
329389.400,317325.100,710770.900,710766.600,710579.900,711046.900,455474.600,711466.600,0.000
329411.800,317353.800,710780.100,710775.100,710588.900,711055.900,455035.600,711476.100,0.000
329732.700,317653.900,710802.100,710797.500,710610.700,711077.900,454984.600,711498.200,0.000
329764.800,317677.700,710806.600,710801.300,710614.800,711082.300,454695.700,711502.300,0.000
329379.800,317319.800,710785.400,710778.800,710594.900,711062.100,453908.900,711482.000,0.000
329296.300,317251.600,710784.400,710776.800,710594.400,711061.600,453368.400,711481.600,0.000
329602.000,317542.100,710807.900,710801.000,710617.500,711084.700,453289.900,711505.100,0.000
329700.200,317628.600,710807.800,710801.100,710617.500,711084.800,453070.400,711505.100,0.000
329346.600,317298.300,710790.700,710782.400,710600.800,711068.100,452336.800,711488.600,0.000
329182.900,317159.900,710788.000,710778.300,710598.400,711065.700,451722.500,711486.600,0.000
329433.300,317399.000,710802.300,710792.900,710613.100,711080.100,451573.400,711501.100,0.000
329616.800,317567.800,710809.900,710800.800,710621.100,711087.800,451443.000,711508.800,0.000
329306.300,317274.700,710790.300,710780.100,710602.100,711068.800,450776.600,711489.700,0.000
329075.600,317067.400,710782.600,710770.900,710594.900,711061.300,450097.600,711482.900,0.000
329285.300,317265.900,710801.800,710789.800,710613.800,711080.400,449897.900,711501.800,0.000
329518.900,317476.900,710810.100,710798.200,710621.600,711088.400,449810.900,711509.600,0.000
329281.100,317249.600,710794.200,710780.900,710606.200,711073.100,449237.400,711493.900,0.000
328962.500,316956.500,710778.400,710763.700,710590.700,711058.000,448486.500,711479.100,0.000
329118.600,317106.600,710794.300,710779.300,710606.300,711073.600,448226.900,711494.900,0.000
329420.800,317385.300,710813.900,710799.300,710625.600,711093.300,448206.400,711514.400,0.000
329252.200,317219.400,710798.800,710782.800,710610.600,711077.900,447724.300,711499.100,0.000
328892.300,316887.400,710780.600,710763.400,710593.400,711060.400,446954.300,711481.800,0.000
328975.800,316970.600,710793.800,710776.800,710607.500,711074.400,446613.900,711495.700,0.000
329324.200,317296.500,710824.400,710807.300,710637.600,711104.300,446634.600,711526.100,0.000
329248.500,317220.300,710813.500,710795.600,710626.600,711093.800,446262.700,711515.300,0.000
328817.800,316817.300,710781.100,710760.900,710594.700,711062.100,445442.600,711483.000,0.000
328806.000,316809.700,710787.200,710766.400,710601.400,711068.300,445005.500,711489.900,0.000
329135.900,317120.100,710810.400,710790.800,710624.700,711091.600,444990.300,711513.300,0.000
329186.100,317160.800,710812.000,710792.200,710625.900,711093.200,444751.600,711515.000,0.000
328792.800,316789.200,710786.600,710764.500,710601.100,711067.900,443990.100,711490.200,0.000
328696.600,316703.800,710787.800,710764.100,710602.100,711069.000,443465.300,711491.200,0.000
329013.300,316997.500,710816.300,710793.000,710630.600,711097.600,443429.500,711519.900,0.000
329135.700,317106.100,710822.300,710799.200,710637.000,711103.900,443278.300,711526.100,0.000
328763.700,316753.600,710794.400,710769.500,710609.900,711076.400,442562.000,711498.700,0.000
328573.400,316578.300,710783.900,710757.100,710599.400,711066.300,441946.800,711488.700,0.000
328835.600,316824.900,710806.800,710780.800,710622.300,711089.300,441843.000,711511.800,0.000
329047.000,317013.400,710820.400,710795.400,710636.100,711103.200,441778.100,711525.600,0.000
328742.800,316721.400,710799.300,710772.000,710615.000,711082.000,441150.000,711504.700,0.000
328482.400,316481.400,710785.900,710756.700,710602.100,711069.300,440471.300,711492.100,0.000
328681.100,316670.800,710801.900,710772.400,710618.100,711085.100,440291.200,711507.900,0.000
328953.300,316915.800,710820.200,710791.100,710635.900,711103.200,440278.600,711525.500,0.000
328763.400,316726.800,710814.600,710784.100,710630.500,711097.400,439793.000,711520.300,0.000
328420.400,316405.600,710793.300,710760.400,710609.900,711076.700,439052.800,711499.900,0.000
328517.400,316499.000,710795.900,710762.600,710612.900,711079.700,438760.400,711502.600,0.000
328846.100,316805.000,710823.300,710791.300,710640.300,711106.900,438800.400,711530.100,0.000
328714.300,316673.500,710812.000,710778.900,710629.300,711096.400,438393.800,711519.400,0.000
328337.200,316319.500,710786.800,710751.200,710604.800,711071.400,437632.600,711494.700,0.000
328400.400,316385.100,710800.800,710764.700,710618.900,711085.800,437304.700,711508.900,0.000
328738.100,316699.300,710829.100,710794.100,710647.100,711114.300,437343.900,711537.300,0.000
328690.500,316642.800,710817.500,710781.800,710635.400,711102.600,437027.300,711525.800,0.000
328281.900,316254.700,710790.900,710751.600,710609.200,711076.000,436264.200,711499.500,0.000
328256.600,316239.400,710796.500,710755.400,710615.000,711082.100,435840.200,711505.300,0.000
328596.400,316562.400,710826.900,710787.200,710645.600,711112.600,435867.300,711535.900,0.000
328640.800,316599.800,710824.900,710785.300,710643.600,711110.400,435662.200,711533.900,0.000
328247.400,316226.800,710799.200,710755.900,710617.800,711084.500,434938.300,711508.200,0.000
328110.700,316102.800,710792.500,710747.300,710611.500,711078.300,434403.100,711501.900,0.000
328411.000,316387.100,710816.800,710772.200,710635.700,711102.600,434373.000,711526.500,0.000
328585.200,316547.700,710830.100,710786.300,710649.300,711116.100,434298.800,711539.600,0.000
328234.500,316214.900,710805.100,710758.500,710624.500,711091.600,433642.800,711515.000,0.000
328018.200,316018.600,710794.300,710744.600,710614.600,711081.600,433037.300,711505.300,0.000
328270.800,316258.500,710819.600,710770.100,710639.900,711106.400,432953.700,711530.600,0.000
328495.600,316465.100,710832.600,710784.900,710653.200,711119.700,432931.900,711543.500,0.000
328196.000,316179.900,710808.700,710757.700,710629.600,711096.100,432354.700,711520.300,0.000
327904.000,315913.300,710792.200,710736.400,710613.300,711079.800,431684.100,711504.100,0.000
328092.900,316095.300,710811.500,710755.600,710633.000,711099.500,431525.100,711523.600,0.000
328390.900,316368.700,710836.900,710782.900,710657.600,711124.600,431573.400,711548.900,0.000
328179.800,316165.100,710817.900,710760.800,710639.000,711105.800,431103.100,711529.900,0.000
327835.600,315848.800,710798.600,710734.200,710620.000,711087.100,430394.100,711511.100,0.000
327961.600,315971.300,710816.300,710750.600,710637.600,711104.900,430156.300,711529.200,0.000
328268.700,316252.500,710833.800,710771.500,710655.300,711122.500,430192.800,711546.600,0.000
328135.900,316118.800,710816.000,710749.400,710638.300,711105.100,429817.600,711529.200,0.000
327754.000,315762.300,710794.400,710705.900,710617.100,711084.200,429092.400,711508.100,0.000
327809.400,315820.000,710811.700,710710.700,710634.300,711101.100,428779.200,711525.400,0.000
328133.100,316125.300,710836.300,710752.800,710658.400,711125.200,428830.600,711549.300,0.000
328131.100,316120.700,710833.300,710718.800,710656.100,711122.900,428596.900,711547.200,0.000
327734.900,315751.200,710796.600,710332.700,710628.700,711096.000,427876.600,711519.900,0.000
327676.000,315703.600,710792.100,710002.600,710630.800,711097.900,427448.300,711521.900,0.000
327979.800,315989.400,710814.000,710216.000,710651.100,711117.800,427456.700,711542.000,0.000
328084.000,316081.200,710821.000,710277.500,710656.100,711122.800,427332.500,711547.400,0.000
327712.300,315731.900,710792.800,709600.900,710632.900,711099.700,426664.300,711524.100,0.000
327558.900,315596.000,710787.600,709073.600,710628.700,711095.600,426145.300,711519.900,0.000
327835.400,315859.200,710809.600,709246.000,710650.100,711117.000,426119.900,711541.300,0.000
328015.200,316021.400,710817.900,709410.500,710658.400,711125.500,426079.600,711549.400,0.000
327685.100,315709.300,710796.100,708764.800,710637.800,711104.600,425478.700,711528.600,0.000
327466.800,315516.000,710791.100,708103.900,710634.100,711100.600,424904.300,711524.800,0.000
327681.300,315721.600,710807.100,708183.900,710649.900,711116.800,424807.400,711541.200,0.000
327943.700,315963.800,710826.200,708465.400,710668.400,711135.300,424845.100,711559.700,0.000
327682.700,315711.900,710805.000,707903.800,710647.800,711115.400,424330.500,711539.400,0.000
327403.500,315456.600,710792.900,707114.800,710636.800,711104.000,423698.700,711528.100,0.000
327569.800,315614.300,710811.300,707089.300,710655.300,711122.400,423539.100,711546.800,0.000
327861.700,315881.000,710827.800,707427.400,710671.300,711138.100,423596.500,711562.800,0.000
327681.900,315706.300,710809.400,707010.600,710654.200,711120.900,423185.000,711545.300,0.000
327327.600,315376.000,710788.900,706126.900,710634.800,711101.400,422501.200,711525.800,0.000
327423.000,315473.500,710802.100,705961.400,710647.800,711114.900,422263.700,711538.900,0.000
327751.200,315778.800,710826.300,706329.300,710671.600,711138.900,422350.400,711562.900,0.000
327687.200,315710.000,710819.800,706108.600,710665.500,711132.700,422069.700,711557.000,0.000
327300.700,315348.500,710793.200,705215.800,710640.100,711107.100,421373.800,711531.300,0.000
327303.700,315355.200,710797.900,704893.500,710645.300,711112.100,421031.000,711536.700,0.000
327627.300,315659.300,710822.200,705233.400,710668.600,711135.800,421102.200,711560.300,0.000
327655.000,315677.100,710818.900,705183.900,710665.300,711132.300,420921.700,711556.600,0.000
327284.200,315328.600,710798.600,704359.000,710646.300,711113.400,420261.200,711537.700,0.000
327207.600,315262.800,710799.400,703910.900,710647.900,711114.600,419838.000,711539.300,0.000
327512.300,315545.300,710820.800,704183.600,710668.800,711136.000,419871.300,711560.500,0.000
327639.600,315656.500,710827.400,704290.000,710675.400,711143.100,419800.100,711567.100,0.000
327265.600,315302.000,710800.400,703530.900,710649.100,711116.300,419162.900,711540.900,0.000
327104.300,315157.400,710795.600,702966.900,710644.600,711111.900,418659.200,711536.800,0.000
327368.800,315404.300,710815.900,703152.800,710665.200,711132.400,418642.000,711557.200,0.000
327586.900,315602.100,710832.800,703385.400,710681.900,711148.900,418662.800,711573.800,0.000
327283.500,315311.500,710811.100,702768.800,710661.600,711128.300,418118.000,711553.600,0.000
327027.200,315074.100,710795.300,702085.300,710646.200,711113.100,417526.200,711538.300,0.000
327247.900,315281.300,710815.800,702174.200,710666.300,711133.400,417454.000,711558.100,0.000
327526.500,315536.800,710835.800,702481.500,710685.600,711153.000,417529.400,711577.800,0.000
327274.600,315297.100,710813.900,701991.100,710664.600,711131.900,417065.000,711556.600,0.000
326949.800,314993.500,710794.600,701234.500,710646.700,711113.600,416424.300,711538.100,0.000
327109.100,315146.800,710812.500,701206.400,710664.300,711131.300,416273.900,711556.300,0.000
327400.700,315418.100,710830.800,701535.400,710681.900,711148.900,416357.800,711574.200,0.000
327254.400,315274.800,710818.300,701222.200,710670.200,711137.100,416011.700,711562.400,0.000
326904.600,314947.300,710801.500,700446.500,710653.800,711120.900,415357.100,711546.300,0.000
326962.100,315006.300,710808.500,700265.800,710660.800,711127.900,415098.600,711553.400,0.000
327291.300,315313.900,710834.600,700618.400,710686.600,711153.600,415209.100,711579.400,0.000
327239.100,315258.300,710827.800,700465.500,710680.100,711147.300,414972.000,711572.600,0.000
326850.800,314894.400,710806.600,699677.900,710659.700,711126.900,414304.700,711552.100,0.000
326845.500,314896.000,710816.700,699387.400,710670.000,711136.900,413981.800,711562.100,0.000
327170.700,315202.000,710839.300,699705.900,710692.300,711159.100,414068.700,711584.900,0.000
327213.400,315237.400,710835.800,699702.500,710688.100,711155.600,413930.500,711581.300,0.000
326813.800,314862.200,710807.300,698937.200,710660.600,711127.900,413270.400,711553.400,0.000
326702.000,314765.300,710803.800,698486.400,710658.200,711125.100,412835.900,711550.600,0.000
327011.500,315056.900,710831.400,698757.900,710685.600,711152.400,412901.100,711578.200,0.000
327183.400,315213.300,710843.900,698923.700,710697.500,711164.600,412898.700,711590.300,0.000
326832.200,314880.500,710819.200,698250.800,710673.700,711140.800,412310.500,711566.400,0.000
326628.100,314695.400,710811.300,697677.800,710666.100,711133.100,411788.700,711558.500,0.000
326879.800,314933.200,710831.400,697849.700,710685.900,711152.900,411780.800,711578.400,0.000
327115.700,315150.500,710847.400,698105.600,710701.800,711169.000,411836.500,711594.400,0.000
326821.300,314867.100,710824.500,697544.100,710679.600,711146.800,411325.100,711572.200,0.000
326558.000,314620.800,710811.800,696878.300,710667.300,711134.400,410748.900,711560.100,0.000
326759.900,314813.900,710829.600,696944.600,710684.800,711152.200,410672.900,711577.800,0.000
327028.700,315061.600,710847.000,697259.100,710702.100,711169.500,410763.800,711595.000,0.000
326812.500,314853.100,710829.300,696842.600,710684.600,711152.000,410348.600,711577.600,0.000
326475.800,314542.300,710808.100,696096.600,710664.300,711131.600,409709.800,711557.300,0.000
326612.900,314676.700,710822.000,696046.700,710677.800,711145.600,409556.200,711570.900,0.000
326945.600,314987.200,710850.800,696423.700,710706.400,711173.900,409701.600,711599.400,0.000
326820.800,314860.400,710840.100,696168.600,710696.000,711163.200,409400.700,711588.900,0.000
326444.500,314505.600,710814.800,695385.400,710671.600,711138.700,408733.800,711564.700,0.000
326490.100,314553.000,710823.300,695190.700,710679.600,711146.800,408475.700,711572.900,0.000
326826.000,314868.300,710850.900,695557.100,710706.800,711174.100,408611.600,711600.200,0.000
326824.200,314863.000,710850.400,695485.000,710706.900,711174.300,408447.500,711599.900,0.000
326429.200,314490.600,710821.600,694711.200,710678.900,711146.200,407791.900,711572.200,0.000
326390.000,314459.400,710825.800,694383.700,710682.900,711150.100,407447.600,711576.500,0.000
326711.700,314762.700,710853.300,694706.200,710709.600,711177.100,407554.000,711603.400,0.000
326780.200,314822.500,710850.900,694750.600,710707.600,711174.800,407464.200,711601.300,0.000
326408.600,314471.000,710827.400,694036.400,710684.100,711151.700,406855.000,711577.900,0.000
326278.900,314354.900,710823.300,693568.600,710680.600,711148.100,406413.000,711574.500,0.000
326569.200,314629.800,710846.100,693817.100,710703.100,711170.700,406468.200,711596.900,0.000
326739.300,314785.500,710855.300,694005.900,710711.800,711179.400,406486.600,711606.100,0.000
326407.100,314471.300,710834.300,693379.400,710691.800,711158.900,405939.300,711585.900,0.000
326191.600,314272.300,710823.800,692787.400,710681.400,711148.600,405414.800,711575.600,0.000
326432.800,314500.200,710844.600,692942.600,710702.400,711169.700,405408.600,711596.300,0.000
326664.600,314714.400,710858.200,693218.800,710715.600,711182.900,405486.600,711609.500,0.000
326374.500,314438.800,710833.100,692696.300,710691.000,711158.400,405006.500,711584.900,0.000
326102.700,314190.300,710822.300,692031.800,710680.400,711147.900,404438.700,711574.500,0.000
326296.000,314374.400,710842.200,692085.400,710700.400,711167.800,404366.200,711594.400,0.000
326585.000,314642.000,710858.800,692423.200,710717.000,711184.200,404486.200,711611.000,0.000
326399.300,314458.900,710843.300,692065.800,710701.400,711168.900,404125.200,711595.600,0.000
326054.700,314137.800,710822.000,691316.400,710680.200,711147.400,403491.800,711574.200,0.000
326166.600,314251.600,710835.800,691233.800,710693.900,711161.400,403323.500,711587.900,0.000
326481.600,314547.900,710854.900,691593.100,710713.400,711180.800,403458.700,711607.300,0.000
326384.600,314446.800,710844.900,691388.100,710704.100,711171.000,403206.300,711597.900,0.000
326013.900,314098.900,710827.200,690629.300,710686.100,711153.500,402575.100,711580.600,0.000
326039.500,314129.600,710835.900,690409.600,710694.400,711162.200,402316.000,711589.200,0.000
326362.600,314435.500,710857.100,690755.500,710715.500,711183.200,402444.600,711610.400,0.000
326377.500,314445.100,710856.900,690719.800,710716.100,711183.300,402313.300,711610.200,0.000
325999.000,314087.500,710837.600,689978.800,710697.200,711164.100,401693.800,711591.300,0.000
325919.800,314018.000,710835.500,689599.800,710695.000,711162.600,401320.100,711589.300,0.000
326235.700,314318.500,710859.600,689911.400,710718.800,711186.400,401428.800,711613.300,0.000
326334.000,314406.900,710859.400,690002.800,710718.600,711185.900,401376.400,711613.100,0.000
325962.500,314056.000,710834.500,689306.300,710694.100,711161.600,400780.800,711588.800,0.000
325821.400,313929.400,710834.500,688824.600,710694.300,711161.400,400344.900,711588.900,0.000
326087.800,314179.800,710851.800,689046.100,710710.900,711178.300,400385.200,711605.800,0.000
326285.500,314361.600,710861.900,689275.400,710721.300,711188.800,400442.100,711616.200,0.000
325966.400,314057.300,710839.400,688687.600,710698.900,711166.200,399932.400,711593.800,0.000
325739.500,313849.600,710833.200,688093.100,710693.300,711160.400,399420.200,711588.000,0.000
325960.500,314064.800,710852.100,688224.900,710712.300,711179.300,399403.500,711607.000,0.000
326236.600,314327.500,710871.400,688554.200,710731.100,711198.400,399534.000,711625.800,0.000
325993.900,314095.800,710855.500,688105.400,710715.100,711182.600,399122.500,711609.900,0.000
325682.200,313804.300,710839.100,687406.100,710698.700,711166.500,398535.500,711593.800,0.000
325845.900,313964.300,710854.300,687422.200,710714.300,711181.700,398446.900,711608.900,0.000
326127.300,314225.800,710864.900,687756.500,710724.700,711192.300,398571.200,711619.600,0.000
325994.800,314097.500,710860.800,687475.300,710720.900,711188.400,398286.100,711615.600,0.000
325637.200,313762.400,710842.900,686726.300,710703.500,711170.600,397668.800,711598.200,0.000
325685.100,313812.800,710844.900,686575.000,710705.100,711172.600,397453.200,711600.100,0.000
326019.700,314131.500,710869.800,686962.100,710729.700,711197.700,397622.400,711625.100,0.000
325965.500,314072.700,710863.200,686825.300,710722.900,711190.800,397428.500,711618.000,0.000
325571.500,313696.400,710838.300,686048.200,710698.100,711165.900,396785.400,711593.200,0.000
325575.600,313702.100,710843.100,685793.700,710703.400,711171.000,396508.300,711598.800,0.000
325919.400,314026.900,710869.600,686160.300,710729.900,711197.300,396666.800,711624.900,0.000
325963.500,314062.800,710869.400,686174.300,710729.100,711197.100,396576.600,711624.900,0.000
325569.400,313687.900,710845.900,685433.600,710705.800,711173.800,395961.400,711601.700,0.000
325495.100,313623.300,710850.500,685054.300,710710.800,711178.600,395606.600,711606.100,0.000
325812.600,313927.400,710874.800,685370.500,710735.500,711203.100,395727.900,711630.900,0.000
325925.200,314030.700,710872.900,685499.700,710733.300,711200.600,395713.000,711628.900,0.000
325557.900,313679.300,710850.900,684831.200,710711.300,711178.900,395150.100,711607.300,0.000
325385.800,313521.600,710846.400,684317.300,710707.300,711174.400,394697.400,711602.800,0.000
325659.200,313784.200,710869.400,684543.100,710730.400,711197.500,394758.300,711626.000,0.000
325871.300,313982.200,710880.400,684807.500,710741.500,711208.500,394846.800,711636.900,0.000
325577.400,313696.900,710851.800,684259.600,710719.400,711186.800,394374.000,711614.800,0.000
325321.300,313456.100,710827.600,683640.600,710706.300,711173.800,393838.300,711601.400,0.000
325540.600,313669.900,710858.200,683941.500,710727.900,711195.200,393827.800,711623.400,0.000
325808.900,313925.600,710879.900,684350.800,710741.600,711208.600,393962.800,711637.400,0.000
325589.200,313712.700,710857.800,683931.100,710727.900,711195.100,393594.500,711623.300,0.000
325249.100,313388.700,710842.600,683282.700,710708.400,711175.500,392991.500,711603.800,0.000
325380.300,313514.200,710849.000,683522.900,710717.400,711184.500,392876.100,711612.100,0.000
325709.800,313825.300,710875.000,684106.200,710740.700,711207.700,393066.900,711635.900,0.000
325573.700,313689.500,710855.800,683833.100,710726.400,711193.900,392796.000,711621.600,0.000
325203.200,313338.000,710842.200,683141.100,710707.100,711174.300,392173.300,711602.800,0.000
325252.800,313388.800,710849.400,683222.400,710713.400,711180.600,391961.500,711608.900,0.000
325596.600,313713.400,710865.900,683852.200,710734.900,711202.300,392143.800,711630.300,0.000
325583.400,313696.900,710862.500,683804.600,710733.000,711200.300,392007.800,711628.700,0.000
325183.200,313315.500,710844.400,683075.900,710709.000,711176.100,391381.200,711605.100,0.000
325152.500,313293.300,710850.300,682994.700,710712.000,711178.800,391078.400,711607.700,0.000
325462.100,313590.000,710858.300,683562.800,710728.100,711194.600,391212.200,711623.500,0.000
325545.700,313666.000,710855.400,683735.300,710729.900,711196.700,391176.100,711625.100,0.000
325164.800,313300.400,710842.800,683030.300,710708.400,711174.900,390585.800,711604.100,0.000
325044.300,313189.400,710844.300,682780.800,710705.100,711172.000,390192.200,711601.400,0.000
325353.200,313484.800,710862.900,683285.600,710729.300,711196.700,390313.800,711625.600,0.000
325512.600,313632.600,710855.600,683644.300,710734.800,711201.900,390360.200,711629.900,0.000
325148.000,313285.600,710843.300,683032.100,710710.300,711177.400,389812.800,711605.600,0.000
324942.400,313093.700,710841.100,682624.600,710702.100,711169.900,389331.700,711598.500,0.000
325205.200,313346.900,710861.600,683008.900,710724.200,711191.700,389382.000,711620.600,0.000
325442.400,313573.200,710864.100,683484.100,710736.700,711203.500,389500.300,711632.000,0.000
325116.100,313260.700,710844.000,683095.200,710709.000,711175.700,389013.200,711604.800,0.000
324810.800,312975.300,710831.400,682565.900,710692.500,711159.700,388438.800,711588.500,0.000
324997.800,313159.500,710851.100,682797.900,710712.300,711179.600,388401.500,711608.600,0.000
325298.700,313444.300,710866.700,683315.100,710729.600,711197.100,388570.300,711626.300,0.000
325076.200,313227.700,710848.200,683065.800,710710.300,711177.400,388204.500,711606.700,0.000
324727.600,312901.400,710833.900,682458.200,710695.100,711162.200,387598.700,711591.300,0.000
324848.500,313023.800,710846.400,682535.100,710706.900,711174.100,387465.100,711603.600,0.000
325187.200,313349.100,710868.500,683072.800,710729.400,711196.600,387661.000,711625.800,0.000
325063.500,313224.900,710855.400,682971.700,710716.600,711183.800,387411.300,711613.300,0.000
324664.500,312842.400,710830.800,682298.300,710692.300,711158.700,386767.200,711588.800,0.000
324711.300,312892.800,710844.700,682231.100,710705.700,711172.800,386554.600,711602.600,0.000
325030.400,313198.600,710863.500,682712.500,710724.800,711191.800,386715.100,711621.200,0.000
325025.900,313193.200,710860.900,682771.100,710722.100,711188.600,386595.300,711618.400,0.000
324595.300,312782.700,710833.600,682079.100,710694.600,711161.100,385948.400,711590.900,0.000
324548.200,312745.300,710838.500,681841.600,710699.800,711166.800,385628.900,711596.200,0.000
324868.100,313053.700,710857.300,682276.100,710718.900,711186.100,385769.000,711615.800,0.000
324964.800,313146.500,710861.100,682476.400,710722.600,711189.900,385756.900,711619.800,0.000
324570.700,312772.600,710840.400,681843.900,710701.800,711169.100,385169.400,711598.900,0.000
324412.000,312627.400,710836.000,681434.200,710697.500,711164.600,384730.600,711594.200,0.000
324698.700,312908.000,710855.100,681776.800,710716.600,711183.400,384811.600,711613.300,0.000
324890.200,313091.700,710865.800,682099.400,710727.500,711194.000,384891.200,711623.900,0.000
324544.600,312760.000,710845.500,681558.100,710707.400,711173.900,384374.700,711603.900,0.000
324327.600,312558.800,710841.400,681050.700,710702.900,711170.100,383886.800,711600.400,0.000
324550.200,312778.100,710853.000,681278.800,710713.900,711181.100,383894.500,711611.400,0.000
324819.000,313034.200,710869.000,681702.700,710729.700,711197.100,384049.700,711627.100,0.000
324548.800,312775.000,710853.000,681300.300,710714.300,711181.300,383636.000,711611.400,0.000
324225.800,312471.400,710836.200,680662.700,710697.400,711164.100,383056.800,711594.900,0.000
324413.300,312655.100,710851.100,680798.500,710712.600,711179.600,383014.300,711610.100,0.000
324753.500,312976.000,710872.600,681300.100,710734.300,711201.100,383231.800,711631.600,0.000
324586.300,312809.600,710859.800,681067.000,710721.100,711188.000,382939.700,711618.300,0.000
324212.600,312452.900,710837.800,680377.600,710699.300,711166.300,382327.400,711596.300,0.000
324338.500,312577.400,710854.100,680402.100,710715.500,711182.500,382215.800,711612.400,0.000
324705.700,312927.300,710877.000,680925.900,710738.400,711205.400,382450.300,711635.300,0.000
324633.300,312853.400,710867.500,680859.000,710728.600,711195.800,382280.400,711626.000,0.000
324241.500,312480.700,710846.900,680164.900,710708.100,711175.100,381683.300,711605.400,0.000
324267.700,312510.300,710853.600,680027.300,710714.600,711181.500,381467.700,711612.100,0.000
324659.200,312887.200,710882.900,680551.400,710744.200,711210.900,381716.100,711641.400,0.000
324697.400,312919.200,710879.200,680652.500,710740.700,711207.900,381668.900,711637.800,0.000
324264.300,312502.300,710847.200,679944.200,710709.000,711176.100,381056.600,711606.600,0.000
324198.100,312445.400,710851.100,679663.900,710712.900,711179.400,380752.100,711610.100,0.000
324543.200,312778.600,710874.600,680112.600,710736.700,711203.200,380948.000,711633.400,0.000
324700.200,312926.500,710881.500,680374.100,710743.100,711210.100,381022.700,711640.500,0.000
324313.800,312555.500,710857.400,679749.600,710719.000,711185.900,380482.800,711616.400,0.000
324145.600,312400.600,710855.500,679316.300,710716.900,711184.300,380077.500,711614.500,0.000
324458.200,312700.500,710880.900,679679.600,710742.300,711209.400,380220.700,711639.700,0.000
324698.200,312926.800,710890.500,680060.400,710751.400,711218.600,380377.800,711649.300,0.000
324353.700,312595.400,710865.800,679536.100,710726.500,711193.800,379907.700,711624.400,0.000
324084.500,312343.700,710849.500,678962.400,710710.600,711177.800,379405.600,711608.300,0.000
324347.400,312597.900,710872.100,679220.800,710733.800,711200.700,379484.300,711631.200,0.000
324675.000,312907.500,710895.100,679709.400,710756.400,711223.300,379726.800,711654.400,0.000
324416.500,312656.200,710874.600,679331.900,710736.000,711202.700,379364.800,711633.700,0.000
324076.000,312332.800,710855.000,678662.100,710716.100,711183.000,378803.300,711613.900,0.000
324249.900,312500.800,710869.100,678766.600,710729.900,711196.700,378774.800,711627.400,0.000
324621.200,312853.300,710894.900,679299.600,710755.900,711223.000,379051.900,711653.600,0.000
324487.700,312722.700,710884.900,679111.600,710746.500,711212.900,378831.300,711644.100,0.000
324070.700,312326.800,710859.600,678366.400,710721.100,711188.100,378217.400,711618.800,0.000
324145.400,312401.100,710866.800,678308.100,710728.400,711195.400,378076.900,711626.000,0.000
324520.800,312759.400,710891.200,678826.000,710752.300,711219.100,378337.300,711650.300,0.000
324482.800,312717.700,710886.600,678796.700,710747.900,711214.600,378228.500,711645.900,0.000
324047.400,312298.200,710859.800,678043.700,710721.300,711188.300,377618.700,711619.100,0.000
324038.100,312294.700,710865.400,677832.300,710726.300,711193.600,377382.100,711624.700,0.000
324418.200,312659.900,710892.400,678319.300,710753.600,711220.600,377628.900,711651.900,0.000
324475.200,312709.800,710891.600,678441.100,710752.500,711219.700,377622.600,711650.900,0.000
324031.100,312288.700,710862.200,677709.500,710723.300,711190.800,377025.800,711622.000,0.000
323928.600,312201.200,710866.300,677348.300,710727.200,711194.400,376695.600,711625.200,0.000
324267.800,312530.300,710886.800,677744.200,710747.400,711214.600,376876.000,711645.700,0.000
324438.300,312690.700,710895.100,678012.500,710755.600,711222.900,376975.100,711654.000,0.000
324036.700,312305.400,710869.900,677365.300,710730.800,711197.900,376445.900,711629.100,0.000
323810.400,312092.600,710860.500,676829.600,710721.300,711188.200,375993.100,711619.700,0.000
324107.700,312379.200,710885.400,677133.000,710746.400,711213.400,376115.700,711644.900,0.000
324366.300,312625.600,710900.200,677519.500,710761.200,711228.000,376298.200,711659.600,0.000
324035.600,312307.600,710877.300,677001.800,710738.200,711205.300,375856.500,711636.600,0.000
323729.200,312015.100,710861.100,676353.900,710722.500,711188.800,375320.900,711620.600,0.000
323947.300,312222.100,710876.400,676522.000,710737.800,711204.300,375342.200,711635.700,0.000
324288.800,312545.300,710898.400,677001.200,710759.300,711226.600,375588.300,711657.700,0.000
324047.400,312312.100,710882.900,676645.800,710743.900,711211.200,375256.400,711642.300,0.000
323654.500,311938.900,710857.800,675904.300,710719.400,711186.400,374653.100,711617.500,0.000
323820.100,312102.300,710875.200,675958.200,710736.400,711203.400,374599.500,711634.600,0.000
324203.500,312471.400,710902.100,676483.200,710763.600,711230.500,374869.600,711661.600,0.000
324064.500,312336.400,710887.300,676294.700,710748.900,711215.800,374646.200,711646.900,0.000
323643.900,311936.700,710862.700,675529.800,710723.900,711191.300,374034.000,711622.300,0.000
323705.700,312003.200,710872.700,675423.900,710733.600,711200.900,373876.800,711632.100,0.000
324114.700,312397.000,710901.900,675952.200,710762.800,711229.900,374159.700,711661.000,0.000
324108.000,312388.800,710898.600,675963.900,710759.700,711226.200,374085.300,711657.800,0.000
323655.400,311956.800,710870.600,675197.100,710731.400,711198.000,373472.500,711629.900,0.000
323595.700,311905.600,710865.200,674909.700,710726.600,711193.100,373184.500,711624.600,0.000
323977.500,312276.300,710889.100,675376.900,710750.600,711217.300,373424.300,711648.600,0.000
324105.000,312399.400,710900.700,675579.200,710761.900,711228.900,373491.900,711660.100,0.000
323672.400,311986.900,710874.800,674870.800,710736.100,711203.300,372923.900,711634.500,0.000
323517.200,311844.800,710870.200,674444.900,710731.300,711198.500,372550.800,711629.600,0.000
323873.300,312186.100,710897.400,674852.100,710758.400,711225.400,372753.900,711657.100,0.000
324096.400,312393.300,710910.100,675181.500,710771.200,711238.300,372907.100,711669.800,0.000
323715.900,312028.800,710883.900,674570.400,710745.000,711212.300,372406.400,711643.400,0.000
323474.400,311804.300,710873.600,674021.100,710734.600,711201.700,371949.300,711633.200,0.000
323771.800,312094.500,710900.200,674320.700,710760.800,711228.300,372077.500,711660.200,0.000
324068.300,312377.900,710917.200,674763.900,710778.200,711245.800,372307.000,711677.200,0.000
323760.900,312081.600,710893.800,674301.900,710755.100,711222.600,371909.900,711653.500,0.000
323436.700,311773.800,710875.900,673643.000,710737.300,711204.600,371380.900,711635.800,0.000
323680.300,312008.600,710901.100,673832.300,710762.200,711229.500,371444.300,711661.000,0.000
324038.700,312349.900,710921.300,674343.100,710782.200,711249.400,371725.700,711681.000,0.000
323836.400,312152.700,710905.100,674054.200,710766.100,711233.400,371454.400,711664.900,0.000
323450.200,311783.900,710884.800,673330.600,710745.900,711213.400,370885.300,711645.100,0.000
323593.900,311926.100,710900.100,673358.800,710761.200,711228.600,370837.200,711660.000,0.000
323991.000,312305.100,710925.700,673902.600,710786.600,711253.900,371147.200,711685.700,0.000
323902.800,312213.200,710914.500,673792.300,710775.300,711242.600,371002.900,711674.600,0.000
323492.300,311820.200,710894.100,673052.100,710754.800,711222.200,370428.800,711654.000,0.000
323527.300,311859.500,710898.900,672914.600,710759.900,711227.400,370264.900,711659.300,0.000
323936.200,312252.400,710926.900,673450.900,710787.800,711255.600,370571.900,711687.200,0.000
323974.800,312285.100,710927.900,673533.400,710788.600,711256.100,370570.100,711687.700,0.000
323547.100,311872.700,710905.300,672807.300,710765.800,711233.100,370011.300,711665.400,0.000
323457.800,311790.800,710900.300,672486.700,710760.800,711227.900,369725.800,711660.600,0.000
323813.100,312131.700,710923.600,672934.700,710784.300,711251.300,369970.300,711683.900,0.000
323953.100,312260.800,710931.100,673167.800,710791.300,711258.600,370072.800,711690.800,0.000
323530.900,311856.400,710906.000,672483.000,710766.300,711233.600,369540.300,711665.900,0.000
323370.200,311707.300,710901.600,672037.500,710761.800,711229.100,369176.900,711661.500,0.000
323694.600,312017.500,710920.600,672390.900,710780.900,711248.300,369354.400,711680.500,0.000
323925.600,312237.700,710931.400,672745.300,710791.600,711259.600,369540.300,711691.300,0.000
323560.600,311885.300,710905.300,672173.100,710765.100,711233.500,369085.500,711665.200,0.000
323290.100,311630.900,710893.700,671580.400,710754.100,711221.800,368618.100,711653.600,0.000
323562.600,311892.300,710917.300,671832.100,710777.400,711244.900,368733.100,711677.200,0.000
323867.800,312179.100,710933.000,672275.500,710793.000,711260.500,368982.000,711692.900,0.000
323572.900,311892.100,710910.300,671834.400,710770.800,711237.900,368618.600,711670.100,0.000
323220.800,311561.100,710894.600,671141.000,710755.000,711222.200,368087.100,711654.300,0.000
323412.100,311751.000,710914.300,671252.400,710774.700,711241.800,368109.900,711674.100,0.000
323762.200,312085.300,710934.800,671737.800,710795.700,711262.900,368386.000,711695.300,0.000
323567.400,311895.100,710917.000,671464.100,710778.000,711245.300,368136.200,711677.400,0.000
323148.500,311499.900,710892.700,670698.400,710753.300,711220.600,367545.600,711652.600,0.000
323256.200,311609.100,710908.800,670661.800,710769.300,711236.800,367462.200,711668.900,0.000
323624.500,311957.400,710929.600,671152.100,710790.300,711257.200,367735.900,711689.800,0.000
323547.400,311879.200,710920.500,671061.900,710781.400,711248.300,367611.600,711680.300,0.000
323115.600,311470.800,710896.800,670292.800,710757.400,711224.700,367025.800,711656.800,0.000
323152.600,311515.300,710914.200,670126.300,710775.100,711242.200,366866.000,711674.800,0.000
323524.600,311870.900,710940.700,670597.300,710801.300,711268.600,367134.100,711700.800,0.000
323549.300,311889.200,710932.600,670658.400,710792.800,711260.400,367114.300,711692.400,0.000
323096.500,311459.100,710903.600,669902.800,710764.300,711231.800,366535.100,711664.000,0.000
323001.500,311376.500,710906.300,669548.900,710766.800,711234.100,366240.400,711666.400,0.000
323363.100,311724.500,710932.700,669967.800,710793.400,711260.800,366475.300,711693.100,0.000
323529.200,311880.000,710938.500,670219.400,710799.000,711266.800,366598.800,711699.200,0.000
323116.800,311488.300,710912.000,669548.500,710772.300,711240.100,366081.200,711672.300,0.000
322925.500,311313.500,710904.300,669054.400,710765.200,711232.100,365688.400,711664.400,0.000
323268.600,311638.800,710933.300,669410.100,710793.800,711261.100,365885.800,711694.100,0.000
323519.300,311869.300,710945.800,669785.300,710806.300,711273.900,366092.400,711706.300,0.000
323178.400,311543.400,710922.500,669249.700,710782.400,711249.900,365671.900,711682.400,0.000
322889.400,311274.600,710906.600,668626.600,710766.600,711234.100,365191.100,711666.500,0.000
323132.800,311509.200,710923.400,668826.900,710783.800,711251.100,365271.300,711683.500,0.000
323457.400,311812.800,710943.900,669297.200,710804.200,711271.700,365545.300,711704.300,0.000
323200.300,311564.500,710926.700,668923.800,710786.800,711254.100,365239.600,711687.100,0.000
322830.900,311218.000,710906.800,668207.900,710767.000,711234.100,364700.100,711667.000,0.000
323004.500,311388.000,710925.800,668279.400,710786.100,711253.100,364704.100,711686.100,0.000
323365.900,311729.500,710948.700,668778.000,710809.000,711276.400,364999.600,711709.400,0.000
323187.600,311551.900,710929.100,668532.200,710789.700,711256.900,364774.500,711689.800,0.000
322756.400,311143.400,710905.800,667745.900,710766.100,711233.400,364183.300,711665.800,0.000
322812.300,311201.800,710913.400,667630.900,710773.700,711240.700,364050.500,711673.100,0.000
323190.900,311559.900,710940.600,668119.000,710801.300,711268.500,364332.800,711700.900,0.000
323144.000,311508.100,710934.400,668062.900,710794.600,711261.900,364236.700,711694.400,0.000
322688.900,311076.900,710906.800,667272.800,710766.600,711234.100,363635.300,711666.800,0.000
322656.000,311052.200,710911.500,667009.500,710771.800,711239.200,363401.800,711671.900,0.000
323043.900,311423.200,710944.100,667483.100,710804.600,711271.700,363680.500,711704.400,0.000
323108.600,311480.400,710940.100,667593.600,710800.500,711267.700,363699.400,711700.700,0.000
322665.400,311061.600,710915.100,666853.300,710775.300,711243.000,363141.300,711675.800,0.000
322508.000,310920.800,710910.100,666415.800,710769.900,711237.400,362787.200,711670.400,0.000
322845.300,311245.700,710936.400,666790.400,710796.300,711263.800,362990.400,711696.300,0.000
323004.300,311393.600,710942.700,667039.400,710802.900,711270.400,363108.800,711702.900,0.000
322581.000,310994.700,710914.200,666363.000,710774.400,711241.800,362587.000,711674.800,0.000
322349.400,310783.800,710908.600,665801.600,710768.600,711235.700,362152.200,711668.800,0.000
322616.100,311035.100,710929.100,666042.400,710789.100,711256.300,362254.200,711689.300,0.000
322874.400,311271.100,710945.900,666393.500,710806.000,711273.100,362435.700,711706.500,0.000
322517.700,310928.100,710920.800,665824.100,710780.900,711247.600,361979.200,711680.800,0.000
322172.800,310607.400,710903.400,665101.500,710763.300,711230.300,361416.200,711663.700,0.000
322378.900,310807.000,710921.900,665204.600,710781.600,711249.000,361421.400,711682.400,0.000
322705.600,311116.200,710942.900,665623.400,710802.500,711269.800,361648.800,711703.400,0.000
322454.900,310879.900,710925.400,665233.400,710785.300,711252.400,361315.800,711685.700,0.000
322052.100,310505.800,710904.900,664458.500,710764.800,711232.000,360719.000,711665.300,0.000
322169.400,310623.200,710915.900,664425.700,710775.300,711243.100,360627.300,711676.000,0.000
322532.900,310968.600,710938.100,664885.600,710797.500,711265.100,360877.200,711698.100,0.000
322412.400,310850.700,710927.100,664693.400,710786.900,711254.300,360684.600,711687.600,0.000
321967.700,310433.800,710900.700,663883.100,710760.600,711227.600,360065.300,711660.900,0.000
321996.400,310467.900,710906.100,663700.500,710765.500,711232.800,359874.200,711666.300,0.000
322380.400,310831.100,710931.800,664164.300,710791.100,711258.400,360130.500,711692.100,0.000
322376.600,310826.000,710930.400,664153.900,710789.900,711256.900,360061.100,711691.100,0.000
321928.100,310405.300,710910.100,663363.600,710769.800,711236.800,359456.100,711670.800,0.000
321827.400,310318.300,710905.900,662989.100,710765.300,711232.400,359121.800,711666.200,0.000
322183.500,310658.300,710933.200,663375.400,710792.800,711259.800,359313.800,711693.800,0.000
322258.300,310724.800,710931.400,663466.700,710790.800,711257.900,359293.600,711692.100,0.000
321801.100,310298.100,710902.600,662683.100,710761.600,711228.900,358673.100,711662.700,0.000
321618.000,310134.000,710898.500,662179.800,710757.600,711225.100,358251.800,711658.400,0.000
321931.700,310427.000,710926.100,662495.800,710785.500,711253.000,358392.500,711686.600,0.000
322136.900,310619.600,710938.300,662769.300,710797.700,711265.300,358504.700,711698.700,0.000
321754.400,310258.000,710914.800,662129.000,710774.000,711241.400,357986.100,711675.300,0.000
321483.000,310011.500,710898.000,661496.300,710757.200,711224.600,357465.600,711658.500,0.000
321753.700,310269.800,710917.000,661706.800,710776.200,711244.000,357528.300,711677.600,0.000
322049.600,310540.900,710931.100,662087.400,710790.400,711257.500,357713.800,711691.600,0.000
321738.000,310239.000,710912.400,661600.300,710771.400,711239.000,357307.600,711672.800,0.000
321370.300,309900.100,710896.600,660869.400,710755.400,711223.500,356730.300,711656.900,0.000
321568.700,310092.200,710911.700,660945.600,710770.600,711238.100,356701.300,711671.900,0.000
321930.800,310432.000,710930.200,661397.400,710788.800,711256.800,356936.900,711690.400,0.000
321735.800,310241.400,710921.300,661096.500,710780.100,711247.600,356659.800,711681.300,0.000
321321.000,309858.000,710899.300,660316.900,710758.400,711225.400,356044.000,711659.400,0.000
321466.700,310003.500,710917.600,660297.000,710776.400,711243.400,355951.800,711677.600,0.000
321853.300,310362.300,710937.300,660787.400,710796.100,711263.300,356211.500,711697.600,0.000
321784.700,310292.000,710927.100,660681.500,710785.900,711252.900,356064.900,711687.400,0.000
321376.200,309908.100,710902.400,659930.600,710760.800,711228.200,355469.900,711662.500,0.000
321457.300,309990.700,710917.600,659822.000,710775.800,711243.200,355327.800,711677.300,0.000
321911.000,310414.600,710948.100,660400.300,710806.600,711274.000,355661.300,711707.900,0.000
322001.800,310484.900,710944.500,660557.800,710802.900,711270.000,355699.500,711704.700,0.000
321619.600,310113.800,710918.600,659914.200,710777.000,711244.400,355193.300,711678.900,0.000
321605.000,310098.500,710921.600,659696.400,710780.100,711247.100,354983.500,711681.600,0.000
322064.300,310526.200,710953.300,660264.100,710811.800,711278.700,355315.300,711713.000,0.000
322297.400,310731.900,710963.900,660625.900,710823.000,711290.000,355506.600,711724.400,0.000
321904.100,310349.600,710932.300,660031.800,710791.100,711258.400,355029.000,711692.800,0.000
321744.100,310203.200,710925.000,659636.300,710783.800,711250.600,354702.000,711685.500,0.000
322126.200,310549.300,710954.600,660085.900,710813.500,711280.400,354968.400,711715.300,0.000
322415.100,310804.800,710967.800,660533.300,710826.900,711293.700,355226.900,711728.400,0.000
322074.000,310475.100,710944.800,660040.200,710803.600,711270.600,354841.500,711705.300,0.000
321796.800,310214.300,710931.100,659477.100,710789.500,711256.600,354410.800,711691.200,0.000
322065.500,310463.400,710949.800,659737.900,710808.300,711275.600,354540.200,711710.100,0.000
322406.800,310782.900,710969.800,660229.000,710828.700,711295.900,354837.300,711730.600,0.000
322125.100,310507.500,710948.100,659833.300,710807.100,711274.500,354519.600,711709.300,0.000
321735.600,310138.300,710926.100,659131.400,710784.500,711251.700,353991.200,711686.800,0.000
321922.900,310316.900,710940.600,659236.500,710799.200,711266.400,354018.600,711701.200,0.000
322314.200,310688.300,710963.300,659764.400,710822.200,711289.500,354338.600,711723.900,0.000
322159.200,310535.500,710953.500,659563.600,710812.500,711279.600,354161.900,711714.600,0.000
321718.000,310124.500,710926.700,658803.200,710785.600,711252.800,353596.500,711687.600,0.000
321804.300,310212.400,710938.500,658754.300,710797.300,711264.800,353522.200,711699.200,0.000
322227.900,310612.900,710965.700,659307.000,710824.800,711292.400,353859.700,711726.900,0.000
322202.400,310594.200,710957.100,659288.300,710816.200,711283.800,353802.500,711717.900,0.000
321755.500,310166.100,710934.100,658547.700,710792.900,711260.100,353257.100,711694.600,0.000
321742.300,310151.100,710940.000,658351.800,710798.400,711266.000,353080.600,711700.100,0.000
322164.000,310549.200,710964.600,658882.200,710823.400,711290.900,353398.900,711725.300,0.000
322271.100,310642.400,710968.500,659066.100,710826.800,711294.800,353485.100,711729.100,0.000
321811.400,310200.300,710941.000,658357.000,710799.000,711267.300,352948.000,711701.400,0.000
321691.400,310084.100,710938.800,658007.100,710796.900,711264.600,352659.900,711699.200,0.000
322097.400,310464.000,710965.100,658482.700,710823.600,711290.700,352936.800,711725.300,0.000
322317.900,310666.900,710976.700,658828.600,710835.200,711302.400,353125.500,711737.100,0.000
321915.800,310279.300,710949.800,658230.200,710808.300,711275.600,352661.600,711710.300,0.000
321708.400,310081.100,710944.800,657762.900,710803.200,711270.300,352292.800,711705.400,0.000
322026.500,310374.700,710964.300,658113.400,710822.500,711289.900,352470.800,711724.600,0.000
322282.100,310607.300,710976.500,658524.300,710835.100,711302.200,352689.700,711736.400,0.000
321911.100,310249.800,710952.500,658000.200,710811.100,711278.400,352260.400,711712.800,0.000
321568.200,309923.100,710935.900,657345.300,710794.600,711261.800,351742.300,711696.600,0.000
321819.100,310164.100,710958.900,657556.100,710817.500,711284.500,351831.900,711719.400,0.000
322180.200,310508.800,710982.500,658071.700,710840.800,711308.200,352152.800,711742.900,0.000
321943.500,310290.400,710964.700,657736.300,710822.700,711290.200,351895.600,711725.100,0.000
321536.700,309916.400,710941.400,657012.800,710799.600,711267.100,351374.700,711702.000,0.000
321711.600,310083.300,710957.900,657098.900,710816.200,711283.700,351407.800,711718.600,0.000
322119.300,310472.300,710981.600,657664.900,710840.100,711307.300,351765.000,711742.400,0.000
322011.800,310364.800,710975.500,657554.600,710833.900,711300.800,351659.500,711736.400,0.000
321580.800,309952.000,710950.600,656829.600,710808.800,711276.200,351124.700,711711.400,0.000
321663.500,310032.800,710957.700,656786.200,710816.000,711283.500,351053.900,711718.400,0.000
322145.300,310486.700,710990.200,657429.600,710848.400,711315.700,351465.800,711750.800,0.000
322197.600,310527.700,710987.500,657558.100,710845.700,711313.300,351521.500,711748.100,0.000
321777.300,310124.800,710960.100,656889.800,710818.300,711285.800,351027.000,711720.600,0.000
321814.500,310161.000,710968.500,656766.800,710827.100,711294.300,350917.700,711729.300,0.000
322279.800,310598.300,710994.800,657390.900,710853.400,711320.700,351320.300,711755.900,0.000
322454.000,310748.300,711002.600,657721.500,710861.300,711328.400,351528.300,711763.400,0.000
322038.200,310339.300,710974.400,657118.300,710833.000,711300.400,351093.500,711735.400,0.000
321938.000,310242.500,710975.700,656824.600,710833.700,711301.200,350877.200,711736.300,0.000
322314.900,310594.700,710995.400,657316.800,710853.000,711320.600,351188.200,711755.600,0.000
322568.200,310822.600,711007.500,657744.400,710865.800,711332.800,351463.400,711768.200,0.000
322195.400,310456.800,710987.000,657212.300,710845.300,711312.400,351082.200,711747.700,0.000
321945.100,310222.300,710978.600,656711.600,710836.500,711303.800,350725.200,711738.900,0.000
322248.300,310511.600,711000.400,657057.400,710858.800,711326.100,350935.600,711761.200,0.000
322548.100,310790.500,711007.500,657529.600,710865.800,711333.200,351220.900,711768.300,0.000
322217.400,310471.800,710984.000,657082.600,710842.600,711310.100,350874.400,711745.200,0.000
321854.100,310131.100,710967.800,656425.100,710825.600,711293.200,350403.800,711728.900,0.000
322073.500,310345.300,710987.900,656606.500,710845.900,711313.300,350510.600,711748.800,0.000
322442.800,310691.300,711012.000,657148.400,710869.800,711337.300,350864.700,711772.800,0.000
322196.200,310460.500,710989.700,656840.900,710847.800,711315.100,350626.600,711750.300,0.000
321758.700,310056.100,710966.400,656082.100,710824.500,711291.800,350091.000,711727.300,0.000
321881.500,310179.700,710983.800,656103.200,710841.800,711308.800,350098.000,711744.700,0.000
322266.600,310547.200,711008.700,656639.600,710867.300,711334.100,350453.700,711769.700,0.000
322143.900,310430.800,710995.000,656501.600,710853.100,711320.200,350339.000,711755.600,0.000
321681.300,309993.600,710971.100,655720.900,710829.100,711296.100,349793.500,711731.500,0.000
321719.100,310037.600,710980.100,655576.100,710838.100,711305.100,349682.000,711740.400,0.000
322133.800,310435.700,711005.100,656111.300,710863.100,711330.200,350030.400,711765.700,0.000
322151.300,310447.800,711003.400,656180.000,710861.300,711328.500,350059.400,711764.000,0.000
321664.300,309986.300,710979.100,655413.600,710837.300,711304.200,349522.700,711739.800,0.000
321572.100,309904.500,710979.000,655095.000,710837.300,711303.900,349288.000,711739.800,0.000
321953.600,310266.500,711002.100,655562.800,710860.300,711327.100,349582.400,711762.800,0.000
322092.900,310389.600,711006.400,655798.300,710864.900,711332.100,349719.900,711767.300,0.000
321640.200,309955.800,710980.500,655095.300,710838.600,711306.100,349217.700,711741.300,0.000
321467.800,309800.200,710980.800,654638.900,710838.500,711305.700,348891.500,711741.100,0.000
321824.700,310143.300,711005.300,655032.100,710863.300,711330.400,349134.800,711766.100,0.000
322073.500,310371.200,711013.500,655417.600,710871.600,711339.300,349371.700,711774.400,0.000
321689.700,309998.600,710987.100,654845.300,710845.300,711312.800,348957.200,711747.900,0.000
321414.900,309747.400,710975.100,654258.300,710833.200,711300.300,348544.700,711735.400,0.000
321726.500,310047.600,710999.800,654562.600,710857.500,711325.000,348739.300,711760.300,0.000
322073.400,310375.500,711020.300,655074.500,710878.300,711345.800,349072.000,711781.300,0.000
321777.400,310090.700,710997.500,654666.100,710855.400,711322.900,348773.600,711758.400,0.000
321407.000,309743.700,710976.500,653978.900,710833.800,711301.300,348291.400,711737.000,0.000
321640.700,309964.500,710997.700,654155.100,710855.100,711322.200,348396.700,711758.600,0.000
322056.300,310355.300,711024.900,654740.100,710882.200,711349.500,348777.700,711785.400,0.000
321858.100,310161.600,711010.100,654500.100,710867.600,711334.900,348591.800,711770.700,0.000
321401.800,309730.000,710983.400,653717.700,710840.900,711308.000,348037.000,711744.100,0.000
321513.200,309838.900,710993.400,653691.600,710851.300,711318.300,347994.300,711754.300,0.000
321942.400,310247.300,711020.000,654268.300,710877.900,711345.300,348358.900,711780.900,0.000
321878.400,310187.500,711013.300,654229.000,710871.300,711338.300,348306.600,711774.000,0.000
321415.500,309752.600,710990.300,653458.900,710848.000,711314.800,347765.400,711751.200,0.000
321415.000,309757.000,710994.200,653275.400,710851.900,711318.900,347615.800,711755.200,0.000
321842.400,310166.300,711021.400,653834.500,710879.200,711345.900,347965.800,711781.900,0.000
321918.200,310237.700,711020.900,653985.900,710878.800,711345.800,348042.400,711781.600,0.000
321443.800,309787.000,710990.900,653239.300,710848.600,711315.800,347508.700,711751.800,0.000
321357.700,309713.800,710994.800,652925.500,710852.800,711319.600,347281.200,711755.700,0.000
321765.100,310100.900,711023.000,653428.500,710880.600,711347.300,347598.500,711783.600,0.000
321959.300,310279.200,711030.500,653751.400,710887.900,711354.500,347794.200,711790.700,0.000
321540.800,309878.800,711005.600,653111.900,710863.200,711329.900,347344.300,711765.900,0.000
321324.200,309674.300,710995.300,652617.100,710853.100,711319.800,346990.500,711755.600,0.000
321672.600,310003.600,711019.100,653006.900,710876.800,711344.100,347235.900,711779.800,0.000
321968.800,310280.800,711034.300,653458.000,710891.600,711358.400,347526.200,711794.900,0.000
321600.100,309929.000,711007.100,652922.100,710864.600,711331.300,347142.600,711767.400,0.000
321288.100,309637.500,710993.400,652300.800,710851.100,711318.200,346708.800,711753.900,0.000
321568.600,309907.200,711013.900,652557.900,710871.000,711337.900,346868.600,711774.100,0.000
321926.700,310244.500,711034.100,653088.700,710891.400,711358.500,347214.800,711794.400,0.000
321650.600,309978.100,711014.800,652722.200,710872.400,711339.300,346953.300,711775.100,0.000
321259.200,309611.700,710994.200,652003.100,710851.800,711318.800,346457.800,711754.600,0.000
321441.500,309791.700,711010.000,652107.500,710867.700,711334.800,346517.600,711770.600,0.000
321854.100,310179.900,711035.700,652687.100,710893.400,711360.200,346897.300,711796.300,0.000
321711.600,310043.600,711025.600,652513.300,710883.100,711349.700,346765.700,711786.000,0.000
321249.700,309609.800,710998.000,651730.700,710855.300,711322.100,346219.000,711758.500,0.000
321340.600,309698.500,711007.900,651673.400,710865.200,711332.100,346166.800,711768.600,0.000
321759.500,310093.600,711030.800,652236.600,710888.100,711355.100,346527.300,711791.300,0.000
321733.500,310062.900,711024.900,652249.300,710882.300,711349.200,346523.700,711785.700,0.000
321257.900,309608.700,710998.400,651469.900,710855.500,711322.400,345982.100,711759.000,0.000
321229.400,309589.300,711002.300,651240.100,710859.100,711326.100,345812.300,711762.400,0.000
321635.400,309973.900,711027.600,651762.100,710884.600,711351.800,346143.200,711787.700,0.000
321731.900,310058.800,711029.500,651945.300,710886.800,711353.800,346247.200,711789.600,0.000
321264.800,309616.400,711002.100,651200.600,710859.100,711325.700,345725.000,711762.200,0.000
321106.000,309468.500,710996.000,650780.000,710852.800,711319.800,345422.200,711756.400,0.000
321476.700,309823.000,711020.500,651216.900,710877.300,711344.700,345696.900,711781.300,0.000
321695.200,310026.800,711035.700,651563.800,710892.600,711359.600,345915.700,711796.000,0.000
321270.200,309618.500,711011.400,650923.800,710868.100,711335.400,345459.600,711771.900,0.000
320994.200,309359.800,710993.900,650344.100,710850.100,711317.400,345035.900,711753.700,0.000
321331.500,309683.700,711018.700,650689.100,710875.300,711342.400,345242.900,711778.600,0.000
321651.400,309984.600,711040.600,651160.900,710897.400,711364.300,345545.300,711800.600,0.000
321279.400,309628.600,711012.300,650640.400,710869.400,711336.400,345162.200,711772.600,0.000
320929.400,309298.800,710995.300,649964.900,710851.800,711319.000,344679.300,711755.500,0.000
321172.900,309537.700,711014.300,650161.100,710871.200,711338.300,344787.700,711774.700,0.000
321552.600,309893.800,711039.900,650708.100,710896.800,711364.300,345140.500,711800.600,0.000
321316.800,309661.900,711025.500,650388.100,710882.300,711349.600,344903.900,711785.600,0.000
320909.700,309279.900,711005.400,649641.300,710862.500,711329.400,344376.600,711765.700,0.000
321036.200,309403.800,711012.700,649657.300,710869.800,711336.500,344352.300,711772.900,0.000
321462.500,309805.800,711040.400,650232.900,710897.400,711364.700,344722.400,711800.800,0.000
321329.200,309677.100,711025.400,650073.000,710882.000,711349.500,344586.000,711785.600,0.000
320862.700,309238.600,711003.300,649283.700,710859.300,711326.500,344031.800,711763.100,0.000
320916.300,309297.700,711014.200,649168.800,710870.400,711337.400,343936.500,711773.800,0.000
321336.700,309703.000,711037.400,649709.100,710893.700,711361.200,344279.100,711797.300,0.000
321343.800,309710.400,711033.300,649748.500,710889.700,711356.800,344285.500,711793.400,0.000
320878.900,309269.300,711012.100,648977.600,710868.800,711335.600,343749.600,711771.900,0.000
320806.800,309211.300,711011.200,648669.000,710867.800,711334.400,343517.500,711771.100,0.000
321195.800,309580.700,711032.900,649141.600,710889.600,711356.400,343812.400,711792.900,0.000
321338.200,309713.300,711038.400,649363.000,710894.800,711361.600,343947.700,711798.100,0.000
320874.500,309267.100,711011.400,648638.800,710867.900,711334.800,343438.100,711771.300,0.000
320717.700,309122.200,711010.200,648199.100,710866.400,711333.200,343123.200,711769.900,0.000
321088.700,309477.500,711036.200,648614.100,710892.900,711359.600,343387.400,711796.200,0.000
321332.100,309709.200,711047.100,648982.800,710903.800,711370.600,343617.300,711807.300,0.000
320923.700,309318.400,711016.000,648367.100,710872.300,711339.100,343170.500,711776.100,0.000
320661.600,309068.400,711009.100,647799.800,710865.200,711332.100,342769.800,711768.800,0.000
320994.100,309386.900,711038.100,648128.100,710894.900,711361.400,342977.600,711798.100,0.000
321344.800,309715.100,711057.700,648634.600,710914.500,711380.800,343306.300,711817.800,0.000
321032.100,309411.000,711034.900,648190.200,710891.300,711358.300,342981.500,711795.000,0.000
320663.300,309061.400,711013.900,647496.100,710870.100,711336.900,342484.700,711773.900,0.000
320885.400,309274.300,711029.900,647660.000,710886.300,711352.700,342572.300,711789.600,0.000
321286.000,309653.400,711052.400,648219.300,710908.800,711375.700,342935.600,711812.500,0.000
321089.300,309462.000,711040.300,647961.900,710896.300,711363.300,342744.600,711800.100,0.000
320649.100,309045.900,711016.200,647192.100,710871.900,711339.000,342199.100,711776.100,0.000
320780.000,309169.400,711028.600,647198.900,710884.600,711351.600,342181.300,711788.500,0.000
321203.300,309563.900,711057.200,647775.100,710913.400,711380.300,342553.300,711817.400,0.000
321110.400,309470.400,711046.600,647683.500,710902.800,711369.600,342466.200,711806.700,0.000
320632.800,309013.500,711020.300,646892.100,710876.400,711343.300,341907.800,711780.100,0.000
320651.100,309036.000,711026.400,646728.000,710882.600,711349.600,341772.800,711786.300,0.000
321062.100,309425.400,711047.800,647254.300,710904.100,711371.500,342099.600,711808.300,0.000
321117.200,309477.400,711047.600,647363.600,710903.500,711371.100,342148.800,711807.700,0.000
320631.600,309014.400,711020.100,646597.400,710876.100,711343.300,341603.700,711780.000,0.000
320541.600,308929.600,711025.400,646276.100,710881.300,711348.900,341362.800,711785.900,0.000
320943.600,309308.800,711052.000,646757.300,710908.100,711375.100,341662.100,711812.300,0.000
321106.800,309455.300,711059.000,647027.000,710914.900,711382.000,341821.500,711819.300,0.000
320640.700,309011.400,711025.800,646319.400,710881.400,711348.700,341303.800,711785.900,0.000
320427.300,308810.700,711018.800,645829.200,710874.600,711341.300,340944.100,711778.600,0.000
320785.800,309154.200,711045.900,646219.300,710902.000,711368.900,341184.800,711806.000,0.000
321049.400,309402.300,711058.200,646617.300,710913.700,711380.900,341427.500,711818.000,0.000
320662.800,309029.900,711033.100,646040.800,710888.400,711355.800,341005.100,711792.500,0.000
320351.500,308736.300,711018.100,645409.700,710873.600,711340.800,340547.300,711778.200,0.000
320613.100,308988.400,711035.700,645647.600,710891.300,711358.500,340675.100,711795.900,0.000
320966.700,309322.100,711058.100,646150.400,710913.800,711381.100,340994.100,711818.500,0.000
320698.500,309067.500,711043.100,645760.600,710898.700,711365.900,340704.200,711803.500,0.000
320264.200,308657.700,711011.800,644993.900,710867.100,711334.400,340138.000,711771.700,0.000
320461.100,308848.300,711029.900,645111.100,710884.800,711352.400,340187.700,711789.600,0.000
320867.700,309235.200,711057.700,645673.100,710913.100,711380.400,340545.100,711817.600,0.000
320717.100,309087.200,711049.000,645479.000,710904.100,711371.400,340391.500,711808.900,0.000
320290.000,308684.600,711028.600,644725.100,710882.900,711350.400,339851.800,711788.000,0.000
320373.500,308769.500,711038.400,644677.900,710893.000,711360.200,339790.900,711797.900,0.000
320771.100,309146.500,711058.400,645222.800,710913.300,711380.700,340132.300,711817.800,0.000
320730.500,309101.800,711050.900,645202.800,710905.900,711373.300,340090.600,711810.300,0.000
320272.600,308671.300,711025.000,644438.000,710880.200,711347.600,339544.300,711784.400,0.000
320270.700,308674.800,711031.200,644244.000,710885.800,711353.300,339388.700,711790.300,0.000
320707.200,309083.400,711065.600,644807.400,710920.800,711388.000,339752.100,711825.300,0.000
320780.400,309145.800,711061.000,644963.800,710916.800,711383.600,339824.400,711820.700,0.000
320324.300,308709.900,711033.000,644242.100,710888.300,711355.600,339300.600,711792.500,0.000
320209.200,308603.300,711029.300,643891.800,710884.600,711351.800,339034.100,711789.100,0.000
320600.900,308974.300,711054.600,644366.300,710909.900,711376.900,339327.800,711814.100,0.000
320810.300,309166.800,711066.100,644713.400,710921.600,711388.600,339540.300,711825.500,0.000
320406.600,308777.800,711041.600,644103.600,710897.400,711364.700,339094.200,711801.300,0.000
320210.400,308594.500,711036.600,643636.100,710891.800,711359.400,338750.600,711796.300,0.000
320567.200,308933.400,711062.100,644035.600,710917.600,711384.600,338997.500,711821.600,0.000
320847.300,309190.300,711072.600,644488.300,710927.900,711395.100,339274.100,711832.000,0.000
320494.700,308849.200,711044.600,643995.200,710899.500,711366.600,338899.300,711803.900,0.000
320181.300,308553.900,711029.500,643391.700,710884.700,711352.000,338456.800,711788.800,0.000
320465.800,308829.200,711053.600,643670.600,710908.400,711375.900,338626.300,711812.400,0.000
320826.600,309166.500,711072.300,644218.100,710927.900,711394.800,338977.100,711832.300,0.000
320580.700,308927.400,711055.200,643904.100,710911.100,711377.900,338735.700,711815.400,0.000
320214.000,308586.500,711041.800,643231.600,710896.900,711364.100,338257.700,711801.500,0.000
320377.300,308745.400,711055.400,643325.600,710910.100,711377.300,338295.600,711814.900,0.000
320750.300,309098.600,711072.300,643867.800,710927.100,711394.400,338635.600,711831.800,0.000
320603.400,308952.200,711055.900,643704.600,710910.900,711378.300,338494.000,711815.600,0.000
320164.000,308535.100,711035.100,642957.700,710890.000,711357.400,337959.400,711794.600,0.000
320242.500,308618.000,711049.400,642890.800,710904.300,711371.300,337893.000,711808.900,0.000
320669.600,309025.900,711078.300,643456.100,710933.000,711400.300,338265.400,711838.000,0.000
320630.300,308985.500,711064.800,643453.900,710919.300,711386.300,338238.700,711824.100,0.000
320155.800,308534.300,711035.100,642682.300,710889.600,711356.300,337685.100,711794.400,0.000
320120.400,308509.100,711039.100,642440.500,710894.100,711361.200,337503.400,711798.900,0.000
320527.400,308895.900,711071.000,642953.500,710925.600,711392.900,337846.400,711830.600,0.000
320632.800,308989.900,711070.100,643143.900,710924.400,711391.500,337960.900,711829.500,0.000
320202.000,308581.200,711040.700,642449.900,710895.400,711362.400,337465.800,711800.200,0.000
320074.000,308466.200,711043.400,642074.100,710898.500,711365.600,337199.100,711803.300,0.000
320426.600,308804.900,711066.100,642499.100,710921.100,711388.200,337478.200,711826.000,0.000
320661.900,309023.800,711079.100,642866.900,710933.600,711401.400,337725.100,711839.100,0.000
320269.300,308645.300,711049.100,642277.900,710903.400,711371.400,337300.200,711808.800,0.000
320035.300,308427.500,711039.900,641765.900,710894.400,711362.300,336934.300,711799.500,0.000
320351.800,308731.500,711062.800,642106.000,710917.600,711385.300,337157.700,711822.800,0.000
320678.300,309037.600,711082.700,642589.400,710937.100,711404.800,337486.800,711842.600,0.000
320393.100,308760.200,711068.300,642172.600,710922.200,711389.800,337193.000,711828.100,0.000
320035.900,308424.400,711042.800,641510.800,710896.600,711364.300,336712.300,711802.500,0.000
320253.000,308636.100,711053.600,641691.100,710907.800,711375.500,336818.600,711813.100,0.000
320636.000,308990.400,711080.600,642250.100,710935.300,711402.900,337205.300,711840.300,0.000
320429.600,308785.100,711066.500,641989.000,710920.900,711388.400,337014.500,711826.300,0.000
320032.200,308409.100,711044.700,641285.100,710898.900,711366.500,336511.900,711804.200,0.000
320191.300,308562.600,711064.200,641349.400,710918.800,711385.900,336546.500,711823.800,0.000
320622.600,308970.900,711097.600,641943.300,710952.100,711419.400,336961.000,711857.400,0.000
320525.500,308876.700,711085.400,641852.600,710940.100,711407.700,336887.200,711845.300,0.000
320062.100,308435.800,711052.500,641091.300,710907.200,711374.200,336337.200,711812.300,0.000
320100.100,308470.100,711060.400,640978.600,710914.900,711382.400,336250.200,711820.300,0.000
320504.200,308854.800,711086.200,641524.500,710940.400,711408.300,336618.500,711845.900,0.000
320522.300,308862.300,711078.700,641602.400,710932.800,711400.600,336654.800,711838.600,0.000
320084.500,308443.000,711051.400,640886.100,710906.000,711373.600,336143.600,711811.400,0.000
319999.000,308366.800,711047.800,640593.700,710902.600,711369.700,335924.800,711807.800,0.000
320379.900,308730.200,711073.500,641072.600,710928.300,711395.600,336248.500,711833.700,0.000
320522.600,308859.800,711078.800,641316.200,710933.600,711400.700,336412.000,711838.600,0.000
320087.600,308439.400,711048.800,640645.400,710903.400,711370.500,335928.100,711808.100,0.000
319932.500,308298.700,711050.900,640236.600,710904.700,711372.600,335637.000,711810.400,0.000
320270.200,308624.900,711077.100,640629.900,710931.100,711398.800,335897.400,711837.000,0.000
320506.200,308846.400,711087.100,641001.400,710941.400,711408.900,336146.200,711847.400,0.000
320144.800,308498.500,711065.700,640462.300,710920.100,711387.300,335759.900,711825.900,0.000
319860.000,308230.000,711050.700,639888.800,710904.400,711372.000,335341.000,711810.000,0.000
320114.000,308473.200,711064.400,640138.900,710917.900,711385.700,335494.600,711823.700,0.000
320439.400,308780.400,711084.200,640626.300,710938.100,711406.200,335829.800,711843.800,0.000
320162.000,308512.800,711065.700,640239.000,710920.000,711387.400,335547.000,711825.100,0.000
319818.500,308187.500,711047.800,639591.400,710901.600,711368.900,335080.900,711807.200,0.000
320025.800,308392.000,711066.100,639746.100,710919.600,711387.100,335175.200,711825.700,0.000
320409.400,308756.200,711092.700,640296.300,710946.500,711413.900,335553.700,711852.300,0.000
320229.700,308580.400,711077.800,640074.300,710931.400,711398.900,335383.500,711837.200,0.000
319824.700,308195.000,711054.600,639364.200,710908.200,711375.700,334871.500,711814.100,0.000
319954.700,308322.900,711070.400,639382.500,710924.200,711391.600,334875.600,711830.300,0.000
320329.200,308674.800,711086.200,639907.800,710940.000,711407.900,335231.800,711846.100,0.000
320268.800,308613.700,711078.400,639863.300,710932.300,711399.900,335193.800,711838.400,0.000
319840.300,308206.000,711058.300,639150.300,710912.400,711379.500,334685.300,711818.000,0.000
319861.800,308228.200,711066.800,639005.800,710920.800,711387.900,334575.800,711826.100,0.000
320261.700,308607.300,711092.200,639535.500,710946.200,711413.700,334938.500,711851.500,0.000
320337.100,308675.200,711095.100,639685.600,710949.500,711416.800,335038.300,711854.800,0.000
319904.100,308261.100,711066.300,638993.800,710920.500,711387.900,334540.400,711826.300,0.000
319788.500,308151.500,711058.600,638663.100,710911.900,711379.900,334292.600,711818.300,0.000
320151.600,308497.700,711086.000,639118.600,710939.300,711407.000,334605.900,711845.400,0.000
320332.300,308666.300,711096.400,639419.800,710949.900,711417.700,334816.200,711856.100,0.000
319940.800,308289.900,711071.900,638819.300,710925.500,711393.200,334382.800,711831.600,0.000
319755.800,308117.800,711067.300,638378.800,710920.800,711388.100,334069.300,711826.900,0.000
320083.100,308432.900,711091.800,638751.100,710945.400,711412.500,334330.700,711851.600,0.000
320355.400,308688.100,711109.200,639175.000,710963.200,711430.400,334630.600,711868.900,0.000
320004.100,308346.400,711081.600,638670.800,710935.400,711402.700,334259.800,711841.300,0.000
319702.000,308057.900,711060.800,638082.400,710914.600,711381.900,333829.700,711820.500,0.000
319969.800,308317.700,711083.800,638341.800,710937.500,711404.100,334009.500,711843.300,0.000
320312.000,308639.000,711105.100,638845.900,710958.300,711425.600,334363.100,711864.100,0.000
320086.800,308417.300,711091.200,638531.800,710944.800,711412.100,334134.800,711850.800,0.000
319720.600,308068.700,711070.400,637871.100,710923.900,711391.400,333655.800,711829.900,0.000
319890.700,308232.800,711085.600,637976.100,710938.800,711406.700,333720.600,711845.100,0.000
320264.300,308582.800,711107.000,638506.300,710960.600,711428.300,334087.900,711866.900,0.000
320136.700,308456.600,711099.700,638355.400,710953.800,711421.100,333979.600,711859.600,0.000
319683.800,308022.300,711064.600,637602.500,710918.600,711386.100,333426.900,711824.500,0.000
319750.100,308089.600,711073.900,637542.300,710927.500,711395.200,333377.300,711833.600,0.000
320126.400,308444.100,711097.900,638057.800,710951.600,711418.900,333732.800,711857.600,0.000
320096.600,308408.000,711093.800,638054.400,710947.600,711415.000,333720.400,711853.800,0.000
319651.200,307986.300,711066.900,637327.100,710920.100,711387.600,333193.100,711826.500,0.000
319640.400,307984.200,711075.800,637132.900,710928.900,711396.400,333049.300,711835.300,0.000
320012.400,308339.000,711102.200,637612.000,710955.600,711423.600,333376.200,711862.100,0.000
320093.300,308412.000,711104.900,637767.600,710958.400,711426.400,333477.100,711864.500,0.000
319653.900,307989.900,711075.000,637073.800,710928.600,711395.900,332966.600,711834.600,0.000
319532.000,307881.100,711074.100,636717.300,710927.800,711395.000,332700.300,711833.600,0.000
319859.400,308196.700,711096.600,637111.600,710950.400,711417.400,332963.600,711856.000,0.000
320025.700,308351.400,711100.800,637383.400,710954.500,711421.400,333148.000,711860.300,0.000
319622.400,307965.600,711072.400,636769.600,710925.900,711392.900,332700.200,711831.900,0.000
319412.600,307771.400,711067.300,636280.600,710920.600,711387.600,332341.200,711826.600,0.000
319700.000,308047.400,711087.800,636581.800,710941.100,711407.700,332539.100,711847.100,0.000
319977.800,308310.600,711105.900,636997.600,710959.300,711426.600,332828.600,711865.600,0.000
319687.800,308032.200,711089.900,636555.400,710942.900,711410.600,332505.100,711849.600,0.000
319366.000,307725.600,711063.800,635926.600,710917.000,711384.200,332033.000,711823.200,0.000
319588.400,307938.600,711084.300,636118.300,710937.600,711404.800,332156.200,711844.000,0.000
319925.500,308253.500,711105.900,636604.000,710959.100,711426.400,332495.900,711865.300,0.000
319727.100,308056.700,711093.500,636322.100,710946.400,711414.100,332291.000,711852.300,0.000
319364.000,307707.900,711073.800,635651.600,710927.100,711394.400,331799.600,711833.100,0.000
319514.100,307858.000,711087.900,635707.000,710941.300,711408.100,331823.300,711847.500,0.000
319884.100,308209.800,711112.900,636222.800,710966.400,711433.300,332180.500,711872.300,0.000
319792.300,308110.600,711105.600,636104.800,710959.100,711426.000,332090.300,711864.900,0.000
319390.000,307723.300,711078.800,635393.000,710932.100,711399.300,331567.300,711838.100,0.000
319400.300,307736.100,711075.300,635260.300,710928.000,711395.200,331446.100,711834.500,0.000
319788.800,308109.700,711106.800,635780.600,710959.600,711426.800,331810.600,711865.900,0.000
319815.600,308130.700,711110.600,635843.600,710963.800,711430.700,331855.100,711870.000,0.000
319378.100,307710.100,711082.100,635129.400,710935.200,711402.300,331333.000,711841.300,0.000
319297.200,307637.600,711073.700,634842.900,710926.600,711394.100,331104.600,711833.000,0.000
319650.000,307977.500,711096.900,635286.300,710950.000,711417.300,331405.800,711856.900,0.000
319760.800,308078.200,711102.100,635479.400,710955.400,711422.200,331536.800,711861.600,0.000
319345.500,307679.000,711073.900,634816.800,710926.900,711393.900,331050.200,711833.300,0.000
319218.500,307566.800,711075.400,634440.400,710928.400,711395.800,330775.300,711834.800,0.000
319548.500,307884.200,711104.100,634825.000,710956.800,711423.900,331040.800,711863.300,0.000
319747.300,308074.200,711115.100,635143.600,710967.800,711434.900,331258.800,711874.100,0.000
319404.800,307746.500,711095.600,634606.800,710948.400,711415.100,330867.200,711854.600,0.000
319168.000,307527.400,711084.100,634086.100,710936.900,711403.800,330483.200,711843.400,0.000
319415.500,307769.700,711100.400,634332.600,710953.300,711420.500,330644.000,711859.600,0.000
319664.700,308001.600,711110.500,634728.100,710963.400,711430.500,330913.800,711869.700,0.000
319384.900,307732.200,711094.400,634324.900,710947.100,711414.200,330619.300,711853.600,0.000
319075.300,307442.300,711081.700,633717.700,710934.300,711401.400,330170.300,711840.900,0.000
319282.400,307648.700,711099.400,633878.700,710952.100,711419.300,330263.300,711858.500,0.000
319608.800,307959.600,711119.600,634362.300,710972.600,711439.900,330604.100,711878.500,0.000
319384.800,307738.100,711094.900,634078.800,710947.400,711414.800,330390.000,711853.600,0.000
319028.600,307406.300,711076.300,633417.300,710928.800,711396.100,329900.500,711834.900,0.000
319166.700,307546.700,711096.800,633458.200,710949.100,711416.600,329912.300,711855.500,0.000
319522.700,307886.100,711121.100,633961.800,710973.900,711441.100,330261.300,711880.100,0.000
319442.700,307804.800,711110.300,633884.400,710963.400,711430.600,330199.100,711869.500,0.000
319053.000,307441.200,711086.400,633204.200,710939.400,711406.300,329700.100,711845.500,0.000
319078.100,307475.300,711089.900,633068.800,710942.800,711409.700,329582.700,711848.600,0.000
319439.700,307819.800,711115.000,633555.300,710967.600,711434.700,329914.600,711873.800,0.000
319461.500,307840.800,711110.400,633642.300,710963.300,711430.500,329965.000,711869.200,0.000
319062.100,307462.300,711083.500,632985.300,710936.000,711403.600,329476.100,711842.200,0.000
319028.500,307440.300,711091.200,632746.200,710944.100,711411.400,329294.800,711850.400,0.000
319343.200,307733.100,711111.800,633158.000,710964.300,711431.800,329576.600,711870.800,0.000
319488.500,307864.100,711118.900,633407.000,710971.100,711439.000,329755.200,711877.600,0.000
319136.800,307530.800,711098.500,632837.400,710950.800,711418.600,329347.400,711857.100,0.000
318978.700,307382.500,711092.300,632438.000,710944.600,711412.400,329051.600,711851.100,0.000
319266.300,307651.700,711111.700,632781.700,710964.400,711431.800,329285.800,711870.600,0.000
319497.100,307869.000,711123.800,633148.000,710976.900,711444.300,329544.100,711882.700,0.000
319190.900,307574.700,711099.600,632674.100,710952.300,711419.900,329199.000,711858.500,0.000
318958.000,307357.000,711087.100,632164.100,710939.200,711406.800,328828.700,711845.700,0.000
319223.400,307611.500,711113.400,632433.800,710965.600,711433.000,329020.900,711872.100,0.000
319499.300,307864.600,711127.100,632858.500,710979.200,711446.500,329316.200,711885.900,0.000
319252.100,307623.800,711105.700,632501.800,710958.000,711425.500,329055.800,711864.800,0.000
318951.600,307341.200,711089.600,631906.600,710941.800,711409.500,328631.300,711848.800,0.000
319132.800,307515.800,711106.900,632034.100,710958.600,711426.800,328716.200,711865.600,0.000
319463.000,307825.300,711130.100,632514.400,710982.300,711449.600,329051.000,711889.100,0.000
319319.400,307679.700,711115.900,632318.900,710968.400,711435.900,328908.000,711875.100,0.000
318979.400,307354.400,711100.100,631678.200,710952.400,711419.800,328454.700,711858.800,0.000
319060.900,307435.500,711107.600,631642.700,710959.800,711426.900,328419.700,711866.300,0.000
319377.100,307728.400,711122.500,632096.800,710974.400,711441.800,328728.800,711881.100,0.000
319368.700,307720.600,711126.700,632104.100,710978.800,711446.300,328740.300,711885.600,0.000
319007.800,307379.800,711109.400,631464.600,710961.400,711428.900,328286.000,711868.300,0.000
319009.100,307378.600,711113.800,631300.000,710965.900,711433.100,328160.800,711872.800,0.000
319326.100,307673.900,711130.600,631732.500,710982.900,711450.300,328451.900,711889.100,0.000
319352.700,307691.100,711120.200,631826.800,710972.300,711439.700,328501.200,711878.700,0.000
318976.300,307333.700,711094.300,631201.300,710946.500,711413.500,328051.100,711852.900,0.000
318914.300,307281.800,711100.800,630932.000,710952.600,711419.900,327856.800,711859.400,0.000
319257.400,307602.900,711132.700,631359.600,710984.800,711451.900,328150.400,711891.400,0.000
319390.700,307723.500,711131.600,631598.400,710983.900,711450.900,328299.800,711890.300,0.000
319048.600,307399.700,711110.100,631053.300,710962.400,711429.800,327905.100,711868.900,0.000
318903.300,307268.500,711109.100,630658.100,710961.400,711428.600,327621.400,711867.800,0.000
319178.400,307525.700,711128.800,630976.400,710980.800,711448.300,327823.100,711887.400,0.000
319387.300,307713.400,711138.200,631336.900,710990.300,711457.800,328059.400,711897.000,0.000
319092.700,307428.300,711115.100,630893.600,710966.800,711434.000,327730.500,711873.500,0.000
