EEG 1, EEG 2, EEG 3, EEG 4, EEG 5, EEG 6, EEG 7, EEG 8, TRIG
615559.400,-653169.100,94701.130,260296.000,9142.848,352594.000,268060.800,-210533.200,0.000
614629.400,-750000.100,-280069.400,184861.300,-193222.900,436863.300,69341.910,-220121.700,0.000
738889.900,-244181.200,-438611.900,447722.900,-416551.100,573278.300,-342012.700,-211046.100,0.000
750000.100,477120.500,435761.700,477675.000,-76764.120,574161.600,-264570.600,-38687.830,0.000
750000.100,674027.500,750000.100,487672.900,327682.200,710624.500,278043.600,303779.800,0.000
750000.100,673887.200,750000.100,750000.100,509720.700,750000.100,511219.900,451950.200,0.000
750000.100,672965.300,750000.100,750000.100,713683.000,750000.100,604161.900,547935.900,0.000
750000.100,687061.800,682744.200,750000.100,674471.300,750000.100,613083.200,639428.100,0.000
750000.100,750000.100,750000.100,750000.100,659069.000,750000.100,588895.300,640132.300,0.000
750000.100,750000.100,750000.100,750000.100,677233.800,750000.100,592055.800,750000.100,0.000
750000.100,750000.100,750000.100,750000.100,750000.100,750000.100,727647.800,750000.100,0.000
750000.100,750000.100,750000.100,750000.100,750000.100,750000.100,750000.100,750000.100,0.000
750000.100,750000.100,750000.100,750000.100,750000.100,750000.100,750000.100,750000.100,0.000
750000.100,750000.100,750000.100,750000.100,750000.100,750000.100,750000.100,750000.100,0.000
750000.100,750000.100,750000.100,750000.100,750000.100,750000.100,750000.100,750000.100,0.000
750000.100,750000.100,750000.100,750000.100,750000.100,750000.100,750000.100,750000.100,0.000
750000.100,750000.100,750000.100,750000.100,750000.100,750000.100,750000.100,750000.100,0.000
750000.100,750000.100,750000.100,750000.100,750000.100,750000.100,750000.100,750000.100,0.000
750000.100,750000.100,750000.100,750000.100,750000.100,750000.100,750000.100,750000.100,0.000
750000.100,750000.100,750000.100,750000.100,750000.100,750000.100,750000.100,750000.100,0.000
750000.100,750000.100,750000.100,750000.100,750000.100,750000.100,750000.100,750000.100,0.000
750000.100,750000.100,750000.100,750000.100,750000.100,750000.100,750000.100,750000.100,0.000
750000.100,750000.100,750000.100,750000.100,750000.100,750000.100,750000.100,750000.100,0.000
750000.100,741326.500,750000.100,750000.100,750000.100,750000.100,750000.100,750000.100,0.000
750000.100,718756.100,750000.100,750000.100,750000.100,750000.100,750000.100,750000.100,0.000
750000.100,697304.800,750000.100,750000.100,750000.100,750000.100,750000.100,750000.100,0.000
750000.100,677775.900,750000.100,750000.100,750000.100,750000.100,750000.100,750000.100,0.000
731865.400,660356.900,750000.100,750000.100,750000.100,750000.100,750000.100,750000.100,0.000
712879.300,644186.800,750000.100,750000.100,750000.100,750000.100,750000.100,750000.100,0.000
694443.900,628500.300,750000.100,750000.100,750000.100,750000.100,750000.100,750000.100,0.000
677356.100,613979.000,750000.100,750000.100,750000.100,750000.100,750000.100,750000.100,0.000
662168.800,601083.500,750000.100,750000.100,750000.100,750000.100,750000.100,750000.100,0.000
648112.400,589142.100,750000.100,750000.100,750000.100,750000.100,750000.100,750000.100,0.000
634236.300,577356.300,750000.100,750000.100,750000.100,750000.100,750000.100,750000.100,0.000
621076.700,566197.200,750000.100,750000.100,750000.100,750000.100,750000.100,750000.100,0.000
609407.400,556315.400,750000.100,750000.100,750000.100,750000.100,750000.100,750000.100,0.000
598749.300,547282.400,750000.100,750000.100,750000.100,750000.100,750000.100,750000.100,0.000
588112.300,538262.600,750000.100,750000.100,750000.100,750000.100,750000.100,750000.100,0.000
577777.700,529516.700,750000.100,750000.100,750000.100,750000.100,750000.100,750000.100,0.000
568624.200,521779.700,750000.100,750000.100,750000.100,750000.100,750000.100,750000.100,0.000
560382.100,514810.500,750000.100,750000.100,750000.100,750000.100,750000.100,750000.100,0.000
552122.800,507818.800,750000.100,750000.100,750000.100,750000.100,750000.100,750000.100,0.000
543854.400,500829.600,750000.100,750000.100,750000.100,750000.100,750000.100,750000.100,0.000
536486.100,494610.700,750000.100,750000.100,750000.100,750000.100,750000.100,750000.100,0.000
529990.600,489126.200,750000.100,750000.100,750000.100,750000.100,750000.100,750000.100,0.000
523527.500,483662.200,750000.100,750000.100,750000.100,750000.100,750000.100,750000.100,0.000
516815.500,477993.300,750000.100,750000.100,750000.100,750000.100,750000.100,750000.100,0.000
510767.000,472896.200,750000.100,750000.100,750000.100,750000.100,750000.100,750000.100,0.000
505560.100,468512.100,750000.100,750000.100,750000.100,750000.100,750000.100,750000.100,0.000
500447.400,464199.200,750000.100,750000.100,750000.100,750000.100,750000.100,750000.100,0.000
494961.400,459574.600,750000.100,750000.100,750000.100,750000.100,750000.100,750000.100,0.000
489901.800,455321.000,750000.100,750000.100,750000.100,750000.100,750000.100,750000.100,0.000
485655.100,451758.800,750000.100,750000.100,750000.100,750000.100,750000.100,750000.100,0.000
481592.600,448344.200,750000.100,750000.100,750000.100,750000.100,750000.100,750000.100,0.000
477097.200,444562.500,750000.100,750000.100,750000.100,750000.100,750000.100,750000.100,0.000
472817.800,440974.900,750000.100,750000.100,750000.100,750000.100,750000.100,750000.100,0.000
469291.300,438019.800,750000.100,750000.100,750000.100,750000.100,750000.100,750000.100,0.000
466045.800,435293.700,750000.100,750000.100,750000.100,750000.100,750000.100,750000.100,0.000
462376.800,432210.700,750000.100,750000.100,750000.100,750000.100,750000.100,750000.100,0.000
458701.300,429133.900,750000.100,750000.100,750000.100,750000.100,750000.100,750000.100,0.000
455709.600,426641.600,750000.100,750000.100,750000.100,750000.100,750000.100,750000.100,0.000
453106.400,424469.800,750000.100,750000.100,750000.100,750000.100,750000.100,750000.100,0.000
450115.900,421960.400,750000.100,750000.100,750000.100,750000.100,750000.100,750000.100,0.000
446937.000,419303.500,750000.100,750000.100,750000.100,750000.100,750000.100,750000.100,0.000
444363.700,417166.500,750000.100,750000.100,750000.100,750000.100,750000.100,750000.100,0.000
442248.300,415409.200,750000.100,750000.100,750000.100,750000.100,750000.100,750000.100,0.000
439835.800,413391.100,750000.100,750000.100,750000.100,750000.100,750000.100,750000.100,0.000
437077.500,411091.800,750000.100,750000.100,750000.100,750000.100,750000.100,750000.100,0.000
434800.400,409210.700,750000.100,750000.100,750000.100,750000.100,750000.100,750000.100,0.000
433059.300,407778.200,750000.100,750000.100,750000.100,750000.100,750000.100,750000.100,0.000
431158.100,406203.000,750000.100,750000.100,750000.100,750000.100,750000.100,750000.100,0.000
428772.300,404216.600,750000.100,750000.100,750000.100,750000.100,750000.100,750000.100,0.000
426720.800,402522.400,750000.100,750000.100,750000.100,750000.100,750000.100,750000.100,0.000
425258.700,401327.800,750000.100,750000.100,750000.100,750000.100,750000.100,750000.100,0.000
423728.900,400067.300,750000.100,750000.100,750000.100,750000.100,750000.100,750000.100,0.000
421688.800,398376.800,748737.900,748799.700,748501.500,748998.100,748901.600,749455.000,0.000
419833.700,396852.000,747109.400,747170.700,746874.100,747368.900,747272.900,747825.200,0.000
418567.800,395827.500,745581.600,745643.100,745347.200,745840.900,745745.400,746296.300,0.000
417366.900,394849.200,744113.100,744174.900,743879.900,744372.300,744277.400,744827.100,0.000
415648.900,393431.200,742679.700,742740.900,742446.600,742938.100,742843.400,743392.100,0.000
413956.000,392041.900,741313.300,741374.300,741080.500,741571.600,741477.300,742025.300,0.000
412819.200,391124.300,740033.800,740094.900,739801.900,740291.600,740197.800,740745.000,0.000
411881.300,390366.800,738814.700,738875.800,738583.300,739072.000,738978.500,739524.600,0.000
410462.300,389201.700,737618.700,737679.800,737388.300,737876.100,737782.900,738327.900,0.000
408887.800,387914.500,736467.200,736528.400,736237.500,736724.100,736631.600,737175.900,0.000
407854.000,387090.100,735398.200,735459.500,735169.200,735654.900,735562.800,736106.000,0.000
407113.900,386504.900,734383.500,734444.800,734154.800,734639.600,734547.600,735090.000,0.000
405959.300,385565.500,733380.700,733441.900,733152.400,733636.800,733545.100,734086.900,0.000
404509.800,384383.300,732411.400,732472.300,732183.600,732667.300,732575.900,733117.300,0.000
403529.800,383601.800,731511.000,731571.800,731283.100,731766.400,731675.400,732215.900,0.000
402936.200,383143.800,730666.100,730727.100,730438.800,730921.400,730830.400,731370.700,0.000
402033.600,382416.100,729833.900,729895.300,729607.900,730089.200,729998.300,730538.100,0.000
400715.500,381337.000,729017.800,729078.800,728792.000,729272.600,729182.000,729720.800,0.000
399756.900,380569.100,728256.200,728317.700,728030.900,728511.300,728420.700,728958.800,0.000
399261.600,380193.700,727548.600,727610.500,727323.400,727803.600,727713.800,728250.900,0.000
398578.900,379650.800,726854.600,726916.300,726629.800,727108.800,727019.900,727556.400,0.000
397398.300,378690.800,726165.000,726226.400,725940.400,726419.300,726330.100,726866.500,0.000
396455.500,377939.100,725520.500,725582.200,725296.400,725774.900,725685.300,726221.300,0.000
396022.100,377617.300,724930.500,724992.100,724706.700,725184.400,725095.200,725630.800,0.000
395533.300,377237.100,724355.900,724417.400,724132.200,724609.400,724520.500,725055.900,0.000
394495.400,376391.200,723771.300,723832.400,723548.200,724025.200,723936.100,724470.800,0.000
393552.000,375636.300,723223.700,723284.900,723001.000,723477.300,723388.700,723923.000,0.000
393142.400,375338.700,722728.600,722789.600,722505.700,722982.100,722892.800,723427.300,0.000
392817.300,375103.300,722254.000,722314.800,722030.800,722507.300,722418.200,722951.900,0.000
391958.900,374413.000,721769.100,721830.600,721546.700,722022.700,721934.200,722467.300,0.000
391022.200,373663.200,721300.500,721362.000,721078.300,721553.700,721465.500,721998.100,0.000
390598.900,373346.400,720881.600,720942.700,720659.400,721134.600,721046.100,721578.800,0.000
390382.300,373199.800,720488.700,720550.100,720266.800,720741.600,720653.400,721185.600,0.000
389680.400,372638.700,720079.000,720140.300,719857.000,720331.600,720243.300,720775.100,0.000
388757.300,371896.700,719678.800,719739.700,719457.400,719931.700,719843.000,720374.500,0.000
388313.100,371560.900,719323.800,719384.400,719102.400,719576.200,719488.000,720019.300,0.000
388165.900,371470.000,718996.300,719056.800,718774.800,719248.400,719161.000,719691.600,0.000
387639.900,371056.800,718657.400,718718.100,718436.100,718909.500,718821.900,719352.800,0.000
386745.200,370334.700,718311.300,718372.300,718090.600,718563.800,718475.800,719006.300,0.000
386267.900,369970.400,718011.600,718072.900,717791.500,718264.100,718176.500,718706.800,0.000
386182.800,369934.100,717741.800,717803.300,717521.700,717993.900,717907.100,718436.800,0.000
385804.200,369640.000,717456.600,717517.500,717236.300,717708.400,717621.200,718150.900,0.000
384962.500,368959.300,717160.600,717221.800,716940.400,717412.600,717325.300,717854.800,0.000
384427.200,368546.200,716899.100,716960.100,716678.700,717150.800,717063.600,717593.300,0.000
384352.700,368520.200,716673.100,716734.000,716453.300,716924.900,716837.600,717367.100,0.000
384121.700,368352.800,716441.400,716502.300,716221.600,716693.200,716606.200,717135.200,0.000
383361.600,367738.600,716190.700,716251.500,715971.000,716442.400,716355.300,716884.100,0.000
382794.200,367299.400,715965.700,716027.100,715746.400,716217.300,716130.600,716659.600,0.000
382709.400,367264.200,715775.900,715837.200,715556.600,716027.700,715940.800,716469.600,0.000
382595.200,367195.300,715585.300,715646.600,715366.200,715837.100,715750.400,716279.200,0.000
381930.600,366657.900,715370.800,715432.200,715151.800,715622.400,715535.500,716064.600,0.000
381304.500,366162.500,715175.100,715236.600,714956.200,715426.700,715339.800,715868.600,0.000
381195.900,366105.500,715017.400,715078.400,714798.400,715268.600,715181.900,715710.400,0.000
381175.800,366112.900,714863.300,714924.100,714644.300,715114.500,715027.700,715555.900,0.000
380629.900,365676.200,714683.100,714743.600,714464.500,714934.200,714847.600,715375.800,0.000
379960.100,365141.400,714506.600,714566.900,714288.100,714757.400,714671.300,715199.100,0.000
379790.400,365030.200,714365.600,714426.300,714147.200,714616.700,714530.600,715058.600,0.000
379837.300,365096.800,714239.800,714300.400,714021.100,714490.800,714404.500,714932.600,0.000
379422.800,364770.300,714093.600,714153.800,713875.100,714344.700,714258.300,714786.100,0.000
378745.900,364230.500,713941.800,714002.200,713723.300,714192.800,714106.400,714633.900,0.000
378514.700,364069.300,713820.300,713881.100,713601.900,714071.100,713985.200,714512.600,0.000
378594.900,364165.500,713716.600,713777.600,713498.400,713967.700,713881.700,714409.000,0.000
378305.400,363942.400,713594.900,713655.900,713376.700,713846.000,713760.000,714286.900,0.000
377624.100,363395.400,713460.900,713521.400,713242.700,713711.800,713625.800,714152.900,0.000
377330.900,363183.900,713356.300,713416.500,713138.100,713607.100,713521.300,714048.300,0.000
377429.500,363296.200,713271.600,713332.300,713053.900,713522.300,713436.400,713963.800,0.000
377262.700,363177.700,713172.600,713233.400,712955.500,713423.100,713337.400,713864.800,0.000
376616.100,362655.200,713053.100,713114.400,712836.100,713304.000,713218.000,713745.100,0.000
376245.500,362376.300,712956.900,713018.100,712739.400,713207.900,713122.000,713648.900,0.000
376327.800,362473.300,712889.300,712950.800,712671.900,713140.300,713054.700,713581.400,0.000
376278.000,362445.300,712812.300,712873.600,712594.800,713063.400,712977.300,713503.800,0.000
375684.200,361957.300,712708.300,712769.300,712490.800,712959.400,712873.000,713399.700,0.000
375252.200,361621.700,712619.900,712680.400,712402.000,712870.400,712784.400,713311.400,0.000
375324.300,361715.500,712564.600,712625.600,712346.800,712815.400,712729.500,713256.300,0.000
375359.600,361762.700,712502.900,712564.400,712286.000,712753.900,712668.100,713194.800,0.000
374832.000,361329.000,712410.800,712472.400,712193.800,712662.100,712576.000,713102.500,0.000
374341.300,360942.100,712334.600,712395.800,712117.600,712585.400,712499.400,713026.100,0.000
374361.200,360989.400,712290.100,712350.900,712072.600,712540.500,712454.800,712981.400,0.000
374467.600,361098.600,712240.300,712301.700,712023.200,712491.200,712405.200,712931.800,0.000
374033.100,360742.600,712160.100,712221.100,711942.400,712410.600,712325.000,712850.900,0.000
373478.000,360295.900,712083.300,712144.300,711865.900,712334.200,712248.500,712774.400,0.000
373431.300,360288.400,712041.100,712101.900,711823.800,712291.900,712205.900,712732.400,0.000
373598.600,360454.300,712006.600,712067.900,711789.800,712257.900,712172.300,712698.300,0.000
373300.800,360213.400,711945.100,712006.400,711727.900,712196.000,712110.300,712636.400,0.000
372713.900,359731.900,711872.900,711933.900,711655.600,712123.400,712037.800,712563.800,0.000
372580.300,359647.400,711833.900,711894.700,711616.400,712084.400,711998.600,712524.900,0.000
372768.800,359828.900,711810.800,711872.100,711593.900,712061.700,711976.100,712502.300,0.000
372597.200,359692.000,711763.000,711824.100,711546.600,712014.100,711928.300,712454.200,0.000
372005.800,359205.500,711697.400,711758.400,711480.400,711947.900,711862.600,712388.300,0.000
371792.000,359050.200,711660.200,711721.100,711442.900,711910.600,711825.400,712350.900,0.000
371975.000,359228.600,711642.400,711703.200,711425.300,711893.000,711807.600,712333.300,0.000
371913.000,359185.700,711607.300,711667.600,711389.800,711857.600,711771.900,712297.600,0.000
371351.800,358723.400,711544.300,711604.800,711326.600,711794.400,711709.400,712234.300,0.000
371053.200,358497.200,711505.500,711566.400,711288.100,711756.000,711670.900,712195.800,0.000
371216.300,358661.500,711494.500,711555.200,711277.300,711744.900,711659.800,712185.000,0.000
371257.000,358706.800,711467.500,711528.100,711250.600,711717.700,711632.400,712158.200,0.000
370742.100,358279.100,711411.400,711472.500,711194.400,711661.900,711576.300,712102.300,0.000
370363.700,357981.800,711372.400,711433.700,711155.600,711623.200,711537.500,712063.100,0.000
370488.500,358114.600,711363.000,711423.900,711146.100,711613.700,711528.200,712053.600,0.000
370616.300,358237.800,711348.900,711409.600,711131.800,711599.300,711513.800,712039.200,0.000
370172.900,357868.100,711301.200,711362.100,711083.700,711551.400,711465.700,711990.600,0.000
369712.000,357495.700,711259.900,711321.100,711042.400,711510.500,711424.700,711949.700,0.000
369766.100,357564.700,711247.400,711308.400,711030.100,711497.600,711412.500,711937.600,0.000
369953.800,357741.600,711241.100,711302.200,711024.300,711491.400,711406.900,711931.500,0.000
369622.200,357468.600,711203.300,711264.200,710986.300,711453.900,711368.800,711893.600,0.000
369116.500,357059.100,711161.000,711222.200,710944.100,711411.800,711326.700,711851.300,0.000
369103.100,357075.400,711151.900,711213.100,710934.900,711402.300,711317.400,711841.600,0.000
369338.500,357292.800,711152.600,711213.300,710935.100,711402.700,711317.600,711842.300,0.000
369119.900,357112.400,711120.700,711181.400,710903.600,711371.200,711285.800,711810.800,0.000
368573.300,356663.100,711076.500,711137.300,710859.700,711326.900,711241.800,711766.200,0.000
368463.200,356594.100,711063.200,711123.900,710846.400,711313.600,711228.100,711752.900,0.000
368699.000,356809.600,711067.400,711128.300,710850.100,711317.800,711232.600,711757.400,0.000
368610.500,356737.700,711046.500,711107.400,710829.400,711297.100,711212.100,711736.600,0.000
368070.200,356288.700,711005.300,711066.100,710788.300,711256.100,711170.900,711695.700,0.000
367864.000,356130.800,710986.900,711047.800,710769.900,711237.400,711152.100,711677.200,0.000
368083.300,356330.600,710991.900,711053.100,710775.100,711242.300,711156.900,711681.900,0.000
368110.800,356362.200,710982.000,711043.600,710765.500,711232.800,711147.300,711672.300,0.000
367619.000,355956.400,710946.400,711007.900,710730.000,711197.100,711111.700,711636.600,0.000
367323.300,355725.200,710926.300,710987.200,710709.500,711176.800,711091.200,711616.000,0.000
367504.400,355894.000,710933.200,710993.900,710716.100,711183.800,711097.800,711622.700,0.000
367615.200,355995.500,710929.900,710990.800,710713.000,711179.900,711094.800,711619.300,0.000
367178.500,355633.200,710895.800,710956.600,710678.800,711145.600,711060.700,711585.200,0.000
366802.000,355332.700,710870.700,710931.400,710653.600,711120.400,711035.800,711560.300,0.000
366925.300,355453.300,710876.400,710936.900,710659.200,711126.000,711041.100,711566.200,0.000
367122.600,355628.900,710881.400,710942.100,710664.400,711131.400,711046.100,711571.300,0.000
366769.500,355335.400,710851.800,710912.800,710634.900,711102.100,711017.000,711541.600,0.000
366327.400,354978.000,710825.900,710886.600,710609.100,711076.400,710991.100,711515.600,0.000
366376.100,355035.500,710828.300,710888.900,710611.400,711078.300,710993.200,711518.000,0.000
366608.800,355240.800,710836.400,710897.200,710619.300,711086.600,711001.100,711526.100,0.000
366362.600,355038.300,710813.900,710874.900,710597.100,711064.400,710978.900,711504.100,0.000
365879.800,354644.500,710784.100,710844.900,710567.400,711034.400,710949.200,711473.900,0.000
365851.000,354635.800,710784.600,710845.400,710567.800,711034.800,710949.500,711474.800,0.000
366110.300,354867.100,710797.500,710858.600,710580.700,711047.500,710962.600,711487.700,0.000
365981.700,354764.800,710783.600,710844.900,710566.900,711033.700,710948.600,711473.600,0.000
365469.600,354344.100,710750.900,710812.300,710534.300,711001.500,710915.700,711440.900,0.000
365342.200,354253.100,710744.400,710805.400,710527.600,710994.800,710909.400,711434.100,0.000
365588.700,354470.500,710755.000,710816.400,710538.400,711005.300,710920.300,711444.700,0.000
365576.100,354464.200,710746.700,710807.900,710529.900,710996.800,710911.800,711436.500,0.000
365080.300,354053.300,710715.600,710776.600,710499.100,710965.800,710880.800,711405.200,0.000
364876.100,353898.400,710710.100,710771.100,710493.700,710960.800,710875.400,711399.800,0.000
365104.900,354102.400,710724.600,710785.700,710508.000,710974.900,710889.900,711414.800,0.000
365183.600,354168.400,710722.800,710784.100,710506.100,710973.100,710887.900,711412.900,0.000
364735.700,353795.300,710696.800,710758.100,710480.300,710947.300,710862.100,711386.700,0.000
364424.500,353546.900,710681.300,710742.600,710465.300,710931.600,710846.800,711371.100,0.000
364610.400,353718.800,710691.800,710753.100,710475.600,710942.300,710857.100,711381.900,0.000
364776.900,353863.000,710698.300,710759.400,710481.800,710948.800,710863.800,711388.800,0.000
364395.600,353543.700,710675.700,710736.800,710459.100,710925.800,710841.300,711365.700,0.000
364011.800,353232.900,710656.600,710717.600,710439.900,710906.500,710821.800,711346.300,0.000
364131.800,353349.300,710667.800,710728.800,710451.500,710918.300,710833.100,711357.600,0.000
364370.200,353558.200,710682.300,710743.700,710466.400,710932.900,710847.800,711372.400,0.000
364075.300,353312.200,710659.600,710720.700,710443.400,710910.300,710825.300,711349.800,0.000
363637.300,352952.800,710638.000,710698.600,710421.600,710888.400,710803.500,711327.700,0.000
363686.200,353007.700,710645.600,710706.500,710429.800,710896.000,710811.200,711335.600,0.000
363945.200,353232.100,710659.700,710720.700,710443.400,710910.300,710824.900,711349.500,0.000
363756.300,353072.900,710645.400,710706.200,710428.900,710896.000,710810.400,711335.200,0.000
363284.000,352683.500,710619.900,710680.800,710403.800,710870.600,710785.300,711310.100,0.000
363244.200,352663.900,710623.100,710683.900,710407.100,710873.700,710788.400,711313.100,0.000
363524.700,352909.700,710640.800,710701.400,710424.500,710891.400,710806.200,711330.800,0.000
363446.600,352844.600,710632.600,710693.700,710416.300,710883.600,710797.900,711322.800,0.000
362963.500,352441.100,710606.800,710667.900,710390.300,710857.600,710771.900,711296.800,0.000
362835.300,352342.500,710605.700,710666.700,710388.900,710856.300,710771.000,711295.700,0.000
363099.300,352574.700,710620.600,710681.500,710404.100,710871.100,710785.900,711310.800,0.000
363126.600,352599.900,710619.600,710680.600,710403.400,710870.100,710784.700,711309.400,0.000
362671.700,352223.900,710596.900,710657.600,710380.600,710847.600,710761.800,711286.800,0.000
362434.500,352036.100,710584.300,710645.100,710368.000,710835.100,710749.500,711274.200,0.000
362670.300,352248.200,710601.400,710662.400,710385.100,710852.000,710766.600,711291.600,0.000
362803.500,352363.800,710610.000,710670.900,710393.400,710860.400,710775.100,711299.900,0.000
362382.900,352011.500,710585.500,710646.400,710369.100,710835.800,710750.600,711275.400,0.000
362067.100,351757.100,710571.200,710632.200,710355.000,710821.900,710736.500,711261.100,0.000
362247.200,351920.800,710588.600,710649.400,710372.400,710839.400,710753.900,711278.400,0.000
362449.100,352091.300,710599.600,710660.300,710383.700,710850.600,710765.200,711289.600,0.000
362104.500,351798.600,710575.900,710636.800,710360.300,710826.800,710741.600,711266.200,0.000
361730.300,351492.300,710559.300,710620.200,710343.300,710810.200,710724.800,711249.100,0.000
361866.500,351618.500,710576.600,710637.400,710360.400,710827.400,710741.900,711265.900,0.000
362116.300,351828.900,710587.800,710648.400,710371.800,710838.400,710753.300,711277.300,0.000
361866.200,351614.900,710569.800,710630.200,710353.800,710819.800,710735.100,711259.200,0.000
361433.300,351257.100,710549.000,710609.600,710333.000,710799.400,710714.300,711238.400,0.000
361480.400,351306.500,710559.200,710619.700,710343.300,710809.900,710724.600,711248.400,0.000
361763.700,351550.800,710574.300,710634.800,710358.300,710824.900,710739.600,711263.800,0.000
361615.300,351425.200,710562.100,710622.600,710346.200,710812.700,710727.500,711251.600,0.000
361143.400,351031.000,710536.800,710597.500,710321.100,710787.400,710702.700,711226.600,0.000
361091.400,350996.000,710541.300,710602.100,710325.900,710792.100,710707.400,711231.500,0.000
361382.800,351245.900,710560.300,710620.900,710344.800,710811.200,710725.900,711250.500,0.000
361357.200,351220.300,710558.100,710618.600,710342.400,710808.600,710723.600,711248.100,0.000
360888.900,350826.300,710533.800,710594.200,710317.600,710783.800,710699.700,711223.900,0.000
360743.700,350715.100,710532.800,710593.400,710316.500,710783.100,710698.600,711222.800,0.000
361020.800,350955.800,710553.400,710613.900,710336.900,710804.000,710718.800,711242.900,0.000
361089.300,351010.400,710556.700,710617.100,710340.800,710807.500,710722.400,711246.900,0.000
360650.200,350637.300,710533.100,710593.300,710316.800,710783.600,710698.300,711222.600,0.000
360416.900,350451.400,710525.600,710585.800,710309.600,710775.900,710690.800,711215.200,0.000
360649.300,350657.400,710544.800,710604.800,710328.800,710794.900,710710.100,711234.300,0.000
360809.300,350791.300,710552.100,710611.900,710335.900,710802.400,710717.400,711241.800,0.000
360427.500,350467.400,710529.200,710589.400,710312.900,710780.100,710694.300,711218.900,0.000
360107.700,350207.500,710516.300,710576.600,710300.000,710767.300,710681.800,711206.100,0.000
360277.200,350360.800,710530.300,710590.700,710314.400,710781.200,710696.000,711220.500,0.000
360500.500,350550.300,710543.500,710603.500,710327.400,710794.200,710708.800,711233.300,0.000
360199.400,350292.400,710524.800,710584.800,710308.500,710775.100,710689.900,711214.900,0.000
359814.500,349972.700,710508.000,710568.200,710292.300,710758.600,710673.300,711198.200,0.000
359926.800,350076.500,710521.900,710581.900,710306.100,710772.600,710687.700,711212.100,0.000
360208.700,350317.800,710541.200,710601.000,710325.100,710791.300,710706.600,711230.900,0.000
359995.600,350134.100,710528.400,710588.300,710312.300,710778.200,710693.500,711217.600,0.000
359563.100,349775.000,710507.600,710567.600,710291.400,710757.500,710672.500,711196.900,0.000
359582.700,349798.800,710514.600,710574.300,710298.400,710764.500,710679.600,711204.400,0.000
359885.500,350057.300,710536.900,710596.900,710320.900,710787.200,710702.300,711226.800,0.000
359783.900,349966.700,710528.200,710588.300,710312.600,710778.400,710693.700,711217.900,0.000
359315.400,349573.800,710502.800,710562.900,710287.400,710753.600,710668.400,711192.700,0.000
359244.800,349526.500,710506.000,710566.300,710290.400,710757.300,710672.300,711196.300,0.000
359549.400,349792.500,710530.100,710590.000,710314.300,710780.900,710695.800,711220.200,0.000
359558.800,349801.200,710531.100,710590.700,710315.100,710781.800,710696.600,711221.200,0.000
359092.500,349408.500,710503.900,710563.500,710288.300,710754.700,710669.000,711194.000,0.000
358931.300,349281.600,710502.000,710562.000,710286.400,710752.900,710667.300,711192.300,0.000
359208.300,349523.100,710522.900,710583.100,710307.200,710774.100,710688.600,711212.900,0.000
359316.000,349612.900,710527.200,710586.900,710311.300,710777.900,710692.800,711217.000,0.000
358900.700,349263.300,710506.200,710566.000,710290.300,710757.000,710671.600,711196.000,0.000
358651.900,349063.500,710501.300,710560.900,710285.600,710751.800,710666.500,711190.900,0.000
358877.800,349263.400,710517.400,710577.000,710301.900,710767.900,710683.100,711207.300,0.000
359065.600,349418.500,710525.700,710585.300,710310.300,710776.500,710691.100,711215.400,0.000
358706.000,349112.600,710504.700,710564.400,710289.300,710755.200,710670.400,711194.400,0.000
358381.400,348847.300,710492.600,710551.700,710276.900,710742.700,710658.200,711182.200,0.000
358549.700,348998.700,710510.500,710569.500,710294.900,710760.800,710675.900,711200.000,0.000
358804.200,349214.900,710526.100,710585.100,710310.100,710776.200,710691.000,711215.600,0.000
358531.800,348979.400,710510.400,710569.100,710294.500,710760.600,710675.400,711200.000,0.000
358135.900,348648.400,710493.500,710552.500,710278.200,710744.200,710658.900,711183.400,0.000
358229.700,348734.900,710505.800,710564.700,710290.100,710756.600,710671.000,711195.200,0.000
358527.400,348988.300,710523.900,710582.800,710308.200,710774.900,710689.400,711213.900,0.000
358352.500,348836.400,710512.400,710571.200,710296.800,710763.500,710678.300,711202.600,0.000
357904.700,348461.100,710489.500,710548.400,710274.200,710740.600,710655.500,711179.700,0.000
357909.400,348472.800,710495.100,710554.200,710279.200,710745.600,710660.400,711184.800,0.000
358227.300,348742.800,710516.900,710575.700,710300.900,710767.400,710682.000,711206.700,0.000
358173.100,348694.200,710514.100,710573.100,710298.300,710764.300,710679.800,711204.200,0.000
357719.800,348311.600,710490.600,710550.000,710275.000,710741.300,710656.600,711180.900,0.000
357642.500,348257.000,710493.900,710553.100,710278.600,710744.900,710659.600,711184.400,0.000
357944.300,348520.300,710517.800,710576.100,710301.800,710768.000,710682.900,711207.800,0.000
357978.700,348546.900,710519.300,710577.900,710303.700,710769.900,710684.800,711209.100,0.000
357531.600,348169.300,710494.300,710553.300,710279.100,710745.100,710659.900,711184.200,0.000
357347.600,348025.100,710487.900,710547.100,710272.400,710738.800,710653.800,711178.300,0.000
357625.600,348269.500,710509.800,710568.800,710294.400,710760.600,710675.400,711200.000,0.000
357770.300,348389.900,710516.700,710575.800,710301.200,710767.300,710682.100,711206.600,0.000
357361.300,348042.200,710492.200,710551.100,710276.600,710742.900,710657.800,711182.600,0.000
357108.800,347839.800,710486.200,710544.800,710270.200,710736.600,710651.700,711176.200,0.000
357337.300,348040.700,710507.600,710566.800,710292.300,710758.500,710673.600,711197.900,0.000
357542.000,348206.500,710517.600,710576.800,710302.500,710768.900,710683.500,711208.300,0.000
357202.900,347913.300,710496.200,710555.400,710281.400,710747.600,710662.100,711186.400,0.000
356865.900,347637.800,710483.700,710542.300,710268.600,710734.400,710649.300,711173.400,0.000
357027.800,347783.700,710500.100,710558.900,710285.000,710751.200,710666.000,711190.300,0.000
357295.000,348008.700,710516.100,710575.100,710300.400,710766.900,710682.100,711206.000,0.000
357047.100,347792.300,710499.400,710558.300,710283.800,710750.400,710665.800,711189.400,0.000
356646.100,347455.900,710480.800,710539.100,710265.100,710731.300,710646.800,711170.800,0.000
356741.200,347543.100,710493.800,710552.800,710278.600,710744.600,710660.000,711184.200,0.000
357057.700,347808.600,710514.900,710573.600,710299.600,710765.700,710680.800,711205.200,0.000
356923.800,347687.900,710508.700,710567.100,710293.100,710759.300,710674.400,711199.000,0.000
356480.200,347312.500,710488.100,710546.700,710272.700,710738.900,710653.900,711178.600,0.000
356467.200,347308.700,710493.300,710551.700,710277.800,710744.200,710659.100,711183.800,0.000
356782.400,347578.800,710514.400,710572.400,710298.400,710765.200,710679.600,711204.300,0.000
356741.400,347537.700,710510.700,710568.500,710294.900,710761.800,710676.100,711200.600,0.000
356273.300,347138.400,710483.800,710541.300,710268.400,710734.200,710649.200,711173.800,0.000
356190.600,347082.400,710488.100,710546.000,710272.700,710739.300,710653.800,711178.800,0.000
356533.100,347385.800,710515.100,710572.800,710299.500,710766.100,710680.600,711205.600,0.000
356599.500,347437.700,710517.800,710575.900,710302.200,710768.800,710683.300,711208.300,0.000
356106.800,347009.200,710487.500,710545.600,710272.400,710738.900,710653.400,711178.100,0.000
355918.600,346857.300,710482.700,710540.700,710267.300,710733.900,710648.600,711173.000,0.000
356234.400,347140.800,710507.300,710564.600,710291.800,710758.600,710673.100,711197.900,0.000
356406.400,347287.800,710517.200,710574.600,710301.800,710768.400,710682.500,711207.600,0.000
355977.900,346913.100,710491.600,710549.400,710276.100,710743.100,710657.000,711181.900,0.000
355696.100,346676.700,710481.000,710538.600,710265.700,710732.500,710646.800,711171.600,0.000
355956.700,346907.600,710502.600,710560.000,710287.400,710754.100,710668.300,711192.900,0.000
356215.800,347131.400,710519.600,710576.800,710303.900,710770.300,710685.200,711209.800,0.000
355866.300,346822.000,710498.900,710556.100,710283.300,710749.500,710664.700,711189.100,0.000
355493.700,346503.400,710483.300,710540.200,710267.900,710733.900,710648.400,711173.400,0.000
355680.800,346675.000,710501.200,710558.800,710286.100,710752.300,710666.700,711191.700,0.000
356000.800,346952.100,710523.000,710580.300,710307.300,710773.700,710688.400,711213.300,0.000
355744.700,346724.700,710505.200,710562.100,710289.200,710755.800,710670.700,711195.300,0.000
355307.900,346347.800,710485.600,710542.800,710270.300,710736.800,710651.300,711175.900,0.000
355415.000,346451.100,710500.900,710557.800,710285.300,710752.300,710666.300,711190.900,0.000
355767.600,346762.700,710524.000,710580.700,710308.500,710774.600,710689.200,711214.300,0.000
355616.600,346627.100,710510.400,710566.600,710294.800,710760.600,710675.400,711200.400,0.000
355138.400,346213.900,710486.000,710542.300,710270.100,710736.800,710651.100,711175.600,0.000
355144.800,346230.200,710496.400,710553.300,710280.700,710747.600,710661.800,711186.600,0.000
355498.600,346539.300,710520.300,710576.800,710304.400,710771.100,710685.400,711210.100,0.000
355476.700,346512.300,710512.600,710568.900,710296.400,710762.600,710677.700,711202.400,0.000
354985.700,346085.600,710484.800,710541.300,710268.800,710735.200,710650.300,711174.700,0.000
354890.200,346011.200,710487.300,710544.200,710271.900,710738.400,710653.300,711177.400,0.000
355233.500,346311.300,710512.400,710568.800,710296.800,710763.300,710677.700,711202.300,0.000
355331.900,346390.900,710516.600,710573.100,710301.200,710767.700,710682.000,711206.600,0.000
354868.700,345985.000,710491.400,710547.700,710276.300,710742.500,710657.300,711181.700,0.000
354667.100,345820.300,710487.400,710543.700,710271.900,710738.200,710653.300,711177.800,0.000
354969.500,346089.300,710511.000,710567.000,710295.100,710761.800,710676.700,711201.200,0.000
355170.900,346260.100,710522.900,710578.400,710306.900,710773.400,710688.300,711212.700,0.000
354762.200,345900.300,710497.400,710552.900,710281.500,710747.700,710662.800,711187.300,0.000
354458.300,345646.400,710485.900,710541.200,710270.200,710736.600,710651.300,711175.700,0.000
354705.200,345872.200,710506.800,710562.500,710291.100,710757.800,710672.600,711197.100,0.000
354977.400,346104.500,710521.900,710577.600,710306.100,710772.400,710687.200,711212.300,0.000
354653.100,345815.000,710500.400,710555.900,710285.100,710751.100,710665.900,711190.700,0.000
354264.300,345485.100,710482.300,710537.700,710266.900,710733.000,710648.000,711172.800,0.000
354443.100,345649.100,710499.300,710554.300,710283.300,710749.800,710664.400,711189.300,0.000
354776.700,345936.400,710520.300,710575.900,710304.800,710771.400,710685.900,711210.300,0.000
354557.600,345740.500,710508.900,710563.700,710293.300,710759.300,710674.000,711198.700,0.000
354118.900,345363.500,710488.700,710543.800,710273.000,710739.100,710653.800,711178.800,0.000
354195.300,345437.900,710497.900,710552.900,710282.100,710748.600,710663.200,711188.000,0.000
354559.400,345757.500,710522.400,710577.900,710306.900,710773.300,710687.500,711212.500,0.000
354454.400,345658.200,710514.000,710569.400,710298.600,710764.900,710679.500,711204.200,0.000
353982.000,345248.500,710489.800,710544.800,710274.200,710740.400,710655.300,711180.000,0.000
353967.000,345242.800,710496.600,710551.400,710280.600,710746.700,710661.600,711186.300,0.000
354317.000,345546.400,710518.300,710573.100,710302.300,710768.700,710683.300,711208.300,0.000
354335.200,345555.600,710516.300,710571.000,710300.400,710767.100,710681.600,711206.400,0.000
353860.500,345143.400,710492.500,710547.500,710276.600,710743.100,710657.800,711182.800,0.000
353722.700,345035.300,710490.600,710545.700,710275.300,710741.300,710655.900,711181.100,0.000
354063.500,345339.000,710516.700,710571.200,710300.800,710767.200,710681.700,711206.500,0.000
354199.500,345451.100,710523.200,710577.800,710307.600,710773.800,710688.400,711213.300,0.000
353746.600,345050.300,710494.600,710549.100,710279.300,710745.400,710660.000,711184.900,0.000
353522.000,344863.500,710488.300,710542.900,710273.000,710739.300,710653.600,711178.600,0.000
353819.900,345128.800,710511.800,710565.900,710296.300,710762.700,710676.800,711201.800,0.000
354056.800,345328.900,710525.300,710579.800,710310.100,710776.200,710690.400,711215.600,0.000
353675.500,344995.000,710503.300,710558.100,710287.800,710754.800,710668.800,711193.600,0.000
353356.900,344726.600,710491.400,710545.900,710275.800,710742.800,710656.700,711181.500,0.000
353586.400,344932.200,710513.600,710567.900,710297.700,710764.400,710678.700,711203.400,0.000
353880.300,345187.100,710531.500,710585.900,710315.800,710782.200,710696.800,711221.300,0.000
353591.600,344933.300,710513.200,710567.600,710297.600,710764.100,710678.100,711203.300,0.000
353194.200,344592.300,710496.600,710550.900,710281.500,710747.900,710661.900,711186.600,0.000
353341.800,344729.400,710512.800,710566.900,710297.700,710764.300,710678.300,711202.800,0.000
353676.800,345020.500,710532.100,710586.300,710316.800,710783.200,710697.300,711222.200,0.000
353493.800,344854.300,710518.000,710572.000,710302.700,710768.900,710683.300,711208.400,0.000
353044.300,344465.200,710496.400,710550.200,710281.300,710747.500,710661.900,711186.900,0.000
353100.200,344521.500,710508.100,710562.100,710293.100,710759.500,710673.700,711198.700,0.000
353481.600,344856.200,710535.400,710589.200,710320.400,710786.900,710701.100,711225.900,0.000
353425.100,344801.000,710531.300,710585.100,710316.300,710782.800,710697.000,711221.600,0.000
352944.300,344380.300,710503.500,710556.900,710288.100,710754.800,710668.600,711193.400,0.000
352888.800,344339.600,710506.400,710559.700,710291.000,710757.400,710671.500,711196.400,0.000
353248.700,344654.100,710529.900,710583.000,710314.400,710780.900,710695.100,711219.500,0.000
353313.600,344706.300,710531.400,710584.100,710315.600,710782.300,710696.400,711221.000,0.000
352844.800,344298.000,710505.900,710559.100,710290.100,710756.400,710670.900,711195.800,0.000
352696.200,344175.600,710503.500,710556.600,710287.900,710754.600,710668.600,711193.500,0.000
353020.900,344460.400,710525.400,710578.500,710310.100,710776.500,710690.400,711214.900,0.000
353193.100,344602.800,710534.600,710587.400,710319.200,710785.800,710699.800,711224.300,0.000
352768.700,344226.500,710510.100,710562.100,710294.500,710761.300,710674.900,711199.300,0.000
352519.900,344016.600,710504.300,710556.000,710288.400,710755.400,710669.100,711193.600,0.000
352797.900,344262.800,710525.900,710578.000,710310.300,710777.000,710690.800,711215.600,0.000
353058.900,344484.500,710540.200,710592.300,710324.500,710791.600,710705.400,711229.900,0.000
352710.900,344177.400,710521.100,710572.400,710305.900,710772.400,710686.600,711210.900,0.000
352367.100,343885.700,710506.600,710557.200,710292.300,710758.100,710672.700,711196.900,0.000
352572.000,344071.200,710525.700,710576.300,710311.100,710777.300,710692.000,711216.400,0.000
352884.300,344339.900,710545.700,710596.500,710331.100,710797.100,710711.800,711236.200,0.000
352624.100,344105.500,710526.400,710576.800,710312.100,710778.400,710692.900,711217.200,0.000
352217.700,343758.300,710509.500,710558.500,710295.400,710761.800,710676.700,711200.700,0.000
352339.300,343874.800,710522.600,710571.000,710308.500,710774.800,710689.700,711213.900,0.000
352690.300,344180.700,710542.900,710591.700,710328.900,710795.300,710709.800,711234.100,0.000
352545.600,344045.900,710530.300,710578.400,710316.800,710782.600,710697.400,711221.400,0.000
352092.400,343652.400,710508.300,710555.600,710295.600,710761.300,710675.900,711200.300,0.000
352129.300,343690.600,710518.400,710564.800,710305.400,710771.500,710685.800,711210.600,0.000
352497.400,344006.000,710542.100,710588.400,710328.900,710795.300,710709.400,711234.300,0.000
352471.900,343974.300,710536.800,710582.800,710323.600,710789.700,710704.400,711229.300,0.000
351988.200,343551.500,710506.600,710552.000,710294.100,710760.300,710674.600,711199.400,0.000
351915.000,343493.400,710509.100,710553.400,710296.600,710762.600,710677.100,711201.800,0.000
352289.800,343823.600,710537.800,710582.300,710325.100,710791.100,710705.900,711230.800,0.000
352386.100,343904.100,710541.000,710585.800,710328.300,710794.700,710709.100,711234.100,0.000
351915.300,343493.400,710514.900,710558.500,710302.800,710769.400,710683.500,711208.100,0.000
351738.900,343347.900,710512.600,710555.400,710301.600,710767.300,710682.100,711206.500,0.000
352053.500,343627.100,710536.100,710579.300,710325.300,710790.900,710705.900,711230.200,0.000
352247.900,343791.600,710547.600,710590.500,710336.300,710802.500,710717.000,711241.800,0.000
351849.200,343442.500,710525.100,710567.600,710314.300,710780.700,710695.000,711219.900,0.000
351573.800,343210.000,710515.100,710556.900,710305.100,710771.100,710685.400,711210.400,0.000
351835.700,343446.900,710533.500,710574.800,710323.200,710789.300,710703.800,711228.600,0.000
352115.200,343687.000,710548.900,710590.100,710338.600,710804.600,710719.300,711243.700,0.000
351790.100,343397.200,710530.800,710570.800,710320.800,710786.800,710701.200,711225.600,0.000
351429.000,343088.000,710515.400,710554.800,710306.100,710772.000,710686.400,711210.800,0.000
351615.200,343257.200,710529.600,710568.900,710320.100,710786.100,710700.600,711225.500,0.000
351951.400,343547.100,710548.700,710588.200,710339.400,710805.200,710719.600,711244.300,0.000
351729.700,343344.900,710533.800,710572.600,710325.100,710790.900,710705.100,711229.500,0.000
351300.600,342973.200,710511.400,710548.900,710303.100,710769.100,710683.500,711207.800,0.000
351407.100,343075.700,710525.700,710563.100,710317.300,710783.400,710697.800,711222.200,0.000
351775.400,343394.000,710547.100,710584.600,710337.900,710804.400,710718.800,711243.400,0.000
351671.100,343293.700,710540.200,710577.400,710331.400,710797.900,710711.800,711236.900,0.000
351206.800,342888.300,710514.800,710550.600,710306.400,710772.800,710687.100,711211.900,0.000
351220.800,342908.300,710523.400,710558.800,710315.500,710781.700,710696.000,711220.400,0.000
351608.600,343246.600,710549.300,710584.900,710341.400,710807.400,710721.900,711246.400,0.000
351617.600,343243.100,710545.600,710580.900,710337.300,710803.900,710718.300,711242.900,0.000
351143.300,342831.400,710518.000,710552.300,710310.400,710777.000,710691.000,711216.000,0.000
351038.500,342749.300,710518.300,710552.000,710311.400,710777.600,710691.900,711216.700,0.000
351391.900,343058.300,710546.000,710579.600,710338.600,710805.300,710719.600,711244.100,0.000
351522.000,343165.000,710552.100,710585.300,710344.400,710811.000,710725.000,711249.900,0.000
351084.500,342784.200,710526.900,710559.100,710320.100,710786.400,710700.500,711225.400,0.000
350874.500,342608.500,710521.100,710552.500,710315.100,710781.400,710695.600,711219.900,0.000
351172.400,342868.800,710542.300,710573.700,710336.100,710802.100,710716.600,711240.900,0.000
351400.700,343062.600,710553.700,710585.600,710347.600,710813.600,710728.100,711252.500,0.000
351020.200,342726.800,710531.100,710561.800,710325.100,710791.600,710705.700,711230.200,0.000
350715.700,342467.700,710519.200,710548.500,710313.300,710779.800,710694.100,711218.300,0.000
350960.500,342685.700,710538.200,710567.100,710332.100,710798.800,710712.900,711237.400,0.000
351264.200,342945.200,710555.100,710584.300,710349.200,710815.800,710729.900,711254.600,0.000
350973.200,342686.100,710537.100,710565.600,710331.900,710798.000,710712.300,711237.100,0.000
350587.100,342353.200,710517.600,710544.800,710312.800,710778.900,710693.100,711217.700,0.000
350765.500,342514.900,710535.000,710562.300,710330.300,710796.600,710710.500,711235.300,0.000
351115.200,342814.800,710557.900,710585.100,710353.100,710819.600,710733.400,711257.900,0.000
350916.900,342629.900,710542.500,710569.400,710338.000,710804.600,710718.600,711243.100,0.000
350478.800,342248.400,710519.200,710544.800,710315.300,710782.000,710695.600,711220.400,0.000
350556.200,342324.300,710530.600,710555.600,710327.000,710793.600,710707.400,711231.900,0.000
350916.400,342637.200,710552.300,710577.600,710348.100,710814.600,710729.000,711253.200,0.000
350845.600,342568.900,710543.800,710568.800,710339.900,710806.200,710720.600,711245.300,0.000
350384.300,342169.600,710520.900,710544.800,710317.900,710784.300,710698.400,711223.300,0.000
350361.000,342158.500,710526.700,710549.800,710324.400,710790.500,710704.900,711229.100,0.000
350737.000,342487.600,710551.400,710575.100,710348.800,710815.300,710729.400,711253.800,0.000
350792.800,342528.800,710554.100,710577.300,710351.100,710817.900,710731.800,711256.500,0.000
350317.400,342108.800,710524.800,710546.900,710322.800,710789.200,710703.100,711227.900,0.000
350175.500,341987.200,710522.300,710543.300,710320.700,710786.800,710700.900,711225.600,0.000
350531.800,342302.200,710550.600,710571.800,710348.700,710814.800,710728.900,711253.400,0.000
350692.400,342434.700,710557.000,710578.500,710355.100,710821.200,710735.400,711259.600,0.000
350262.900,342056.200,710531.500,710551.600,710330.400,710796.600,710710.800,711234.600,0.000
350025.800,341860.000,710523.000,710541.800,710322.400,710788.600,710702.600,711226.900,0.000
350320.100,342121.900,710545.100,710563.900,710344.100,710810.400,710724.200,711248.900,0.000
350571.400,342335.500,710558.700,710578.000,710357.600,710823.900,710737.600,711262.300,0.000
350208.600,342015.900,710536.300,710555.000,710336.300,710802.700,710716.100,711241.100,0.000
349883.000,341740.100,710522.800,710540.000,710323.100,710789.100,710702.600,711227.600,0.000
350106.700,341942.600,710542.600,710559.700,710342.800,710809.000,710722.100,711247.100,0.000
350424.800,342217.600,710560.800,710577.900,710360.600,710827.200,710740.400,711265.100,0.000
350162.000,341982.100,710542.800,710559.400,710343.400,710809.900,710723.300,711248.000,0.000
349759.300,341633.800,710525.600,710540.300,710326.300,710792.600,710706.600,711230.800,0.000
349908.900,341770.200,710543.300,710557.900,710344.300,710810.400,710724.100,711248.300,0.000
350279.800,342092.200,710567.400,710582.400,710368.100,710834.400,710747.600,711272.300,0.000
350120.500,341947.200,710553.400,710567.700,710354.100,710820.800,710734.300,711258.800,0.000
349661.000,341548.500,710526.300,710539.800,710328.400,710794.800,710708.300,711232.800,0.000
349707.300,341595.800,710536.100,710549.100,710338.400,710804.600,710718.300,711242.800,0.000
350085.300,341928.100,710561.900,710574.400,710363.100,710829.400,710743.100,711267.500,0.000
350056.100,341896.800,710556.600,710569.100,710358.400,710824.900,710738.300,711262.800,0.000
349584.700,341483.800,710529.700,710540.900,710332.300,710798.400,710712.100,711236.800,0.000
349531.600,341444.800,710533.800,710544.200,710336.900,710802.400,710716.800,711241.100,0.000
349901.600,341767.900,710559.100,710570.100,710361.900,710827.800,710741.900,711266.400,0.000
349985.700,341832.500,710560.900,710571.600,710363.300,710829.500,710743.600,711267.800,0.000
349532.500,341432.700,710535.300,710544.200,710338.600,710804.400,710718.400,711242.800,0.000
349383.200,341309.800,710536.100,710544.000,710339.800,710806.000,710719.400,711244.000,0.000
349712.700,341596.800,710558.700,710566.800,710362.200,710828.300,710742.100,711266.300,0.000
349903.300,341752.900,710566.900,710575.400,710370.500,710836.600,710750.400,711274.600,0.000
349501.900,341399.800,710541.800,710548.900,710345.800,710812.000,710725.500,711250.300,0.000
349241.900,341177.300,710529.400,710535.300,710333.400,710799.900,710713.400,711238.000,0.000
349517.700,341419.300,710551.800,710557.900,710356.000,710822.100,710735.800,711259.900,0.000
349795.300,341655.700,710568.800,710575.100,710372.900,710839.100,710752.700,711276.900,0.000
349470.300,341366.400,710548.400,710554.100,710353.300,710819.400,710733.000,711257.200,0.000
349131.000,341076.500,710534.000,710537.700,710339.300,710805.300,710718.800,711243.300,0.000
349326.900,341249.200,710547.900,710550.800,710352.900,710818.900,710732.700,711257.200,0.000
349666.700,341539.400,710567.900,710571.400,710372.600,710838.900,710752.500,711277.400,0.000
349441.600,341336.000,710553.300,710556.400,710358.400,710824.900,710738.800,711263.000,0.000
349028.100,340981.800,710532.800,710534.800,710339.000,710805.100,710718.900,711243.100,0.000
349146.600,341092.600,710546.500,710547.900,710352.700,710818.900,710732.600,711257.100,0.000
349512.800,341407.500,710570.800,710572.600,710376.900,710843.000,710756.600,711281.200,0.000
349398.600,341298.300,710560.100,710561.400,710366.600,710832.700,710746.000,711270.400,0.000
348947.800,340909.400,710536.100,710535.900,710343.300,710809.000,710722.800,711247.100,0.000
348963.000,340932.400,710541.200,710540.100,710348.100,710813.900,710727.700,711251.900,0.000
349340.600,341263.200,710566.100,710565.800,710372.900,710839.100,710752.700,711277.100,0.000
349347.800,341261.500,710565.300,710564.600,710372.400,710838.500,710752.300,711276.400,0.000
348878.500,340850.600,710538.800,710536.100,710346.600,710812.600,710726.300,711250.300,0.000
348792.800,340781.000,710540.000,710536.500,710348.200,710814.000,710727.700,711251.900,0.000
349154.200,341095.900,710564.600,710561.600,710372.400,710838.400,710752.100,711276.500,0.000
349272.500,341188.600,710569.100,710566.000,710377.300,710843.300,710756.700,711281.400,0.000
348833.900,340800.100,710543.500,710539.000,710352.100,710818.500,710731.500,711256.100,0.000
348646.000,340643.400,710537.100,710531.500,710346.000,710812.100,710725.400,711250.100,0.000
348963.400,340924.400,710560.800,710555.600,710369.900,710835.800,710749.400,711274.000,0.000
349176.800,341104.100,710571.900,710567.000,710380.900,710846.700,710760.100,711284.900,0.000
348800.300,340772.200,710549.300,710543.100,710358.400,710824.600,710738.100,711262.600,0.000
348521.700,340537.400,710538.100,710530.600,710347.700,710814.000,710727.500,711252.100,0.000
348790.300,340779.600,710560.800,710552.900,710370.300,710836.600,710750.000,711274.800,0.000
349078.800,341025.100,710575.700,710567.900,710384.900,710851.100,710764.800,711289.300,0.000
348764.900,340740.800,710552.100,710543.500,710361.900,710827.900,710741.600,711266.100,0.000
348404.600,340432.000,710536.100,710525.900,710346.200,710812.400,710725.900,711250.300,0.000
348588.300,340600.400,710554.800,710544.400,710364.900,710831.200,710744.900,711268.800,0.000
348942.400,340903.300,710578.300,710568.200,710388.400,710854.700,710768.100,711292.300,0.000
348757.900,340734.400,710567.200,710556.600,710377.600,710843.700,710757.100,711281.600,0.000
348319.000,340350.800,710540.900,710528.800,710352.000,710818.400,710731.400,711256.100,0.000
348412.400,340438.400,710552.300,710539.200,710363.300,710829.400,710742.800,711267.500,0.000
348791.700,340767.200,710577.200,710564.300,710387.800,710853.900,710767.300,711292.100,0.000
348709.000,340683.700,710569.300,710555.800,710380.600,710846.500,710759.900,711284.500,0.000
348245.200,340277.700,710542.700,710527.400,710354.500,710821.000,710733.900,711258.500,0.000
348248.600,340288.200,710549.900,710533.800,710361.900,710827.900,710741.200,711265.600,0.000
348631.900,340623.300,710576.400,710560.800,710388.400,710854.200,710767.300,711291.800,0.000
348667.700,340647.800,710575.600,710559.800,710387.600,710853.600,710767.000,711290.900,0.000
348209.200,340251.200,710551.100,710533.500,710364.300,710829.700,710743.300,711267.300,0.000
348092.500,340155.400,710550.200,710531.300,710363.300,710828.800,710742.400,711266.600,0.000
348437.000,340455.800,710573.000,710554.800,710385.900,710851.800,710765.100,711289.300,0.000
348587.000,340581.200,710579.600,710561.800,710392.800,710859.000,710772.000,711296.200,0.000
348154.300,340202.400,710552.700,710533.000,710366.300,710832.400,710745.600,711269.900,0.000
347937.700,340018.200,710547.100,710526.100,710361.300,710827.400,710740.400,711264.400,0.000
348253.400,340298.400,710572.400,710551.500,710386.400,710852.000,710765.500,711289.600,0.000
348508.200,340515.800,710587.800,710567.100,710401.400,710867.300,710780.300,711304.700,0.000
348146.700,340195.300,710565.600,710543.700,710379.600,710845.700,710759.100,711283.100,0.000
347833.900,339931.000,710553.100,710529.400,710367.800,710834.300,710747.400,711271.700,0.000
348074.300,340148.100,710573.000,710549.200,710387.400,710853.600,710767.200,711291.400,0.000
348389.200,340416.500,710588.100,710564.700,710402.400,710868.400,710781.800,711305.900,0.000
348114.800,340168.400,710568.100,710543.400,710382.600,710848.800,710761.800,711286.400,0.000
347731.200,339838.600,710551.200,710524.800,710366.000,710832.800,710746.000,711270.300,0.000
347891.200,339983.700,710566.100,710539.800,710381.300,710848.200,710761.200,711285.400,0.000
348254.100,340294.300,710589.000,710563.300,710403.800,710870.400,710783.600,711307.800,0.000
348099.600,340150.500,710577.300,710550.300,710392.500,710858.800,710772.200,711296.100,0.000
347658.400,339766.400,710553.900,710524.500,710369.900,710836.000,710749.800,711273.500,0.000
347722.300,339830.600,710561.800,710531.900,710378.300,710844.300,710757.800,711281.900,0.000
348103.400,340160.800,710587.300,710558.300,710403.400,710869.400,710782.800,711307.400,0.000
348070.600,340124.800,710584.900,710555.600,710401.300,710867.500,710780.900,711304.900,0.000
347605.100,339721.100,710557.300,710525.600,710374.300,710840.800,710754.100,711278.300,0.000
347570.400,339697.200,710560.900,710527.800,710377.600,710844.400,710758.100,711282.100,0.000
347947.800,340022.400,710587.300,710554.600,710403.800,710870.400,710784.000,711308.100,0.000
348026.300,340083.000,710589.900,710557.200,710406.700,710872.700,710786.400,711310.800,0.000
347567.500,339683.700,710562.400,710527.400,710380.100,710846.100,710759.700,711283.900,0.000
347430.900,339573.300,710561.400,710524.800,710379.100,710845.400,710758.600,711282.900,0.000
347776.300,339876.700,710585.600,710549.400,710403.100,710869.100,710782.800,711307.000,0.000
347955.300,340024.800,710593.200,710557.200,710410.300,710876.400,710790.100,711314.200,0.000
347542.300,339659.700,710567.600,710528.900,710385.500,710851.100,710765.200,711288.800,0.000
347305.300,339463.800,710559.900,710518.700,710378.300,710844.200,710757.400,711281.300,0.000
347596.200,339722.900,710580.500,710540.100,710399.000,710864.900,710778.400,711302.400,0.000
347862.300,339948.800,710592.700,710553.100,710411.200,710877.100,710790.300,711314.700,0.000
347525.500,339646.800,710571.800,710529.300,710390.100,710856.100,710769.400,711293.700,0.000
347196.900,339364.400,710557.000,710511.500,710375.900,710841.900,710755.600,711279.700,0.000
347422.700,339563.900,710574.900,710529.700,710394.200,710859.900,710773.700,711297.800,0.000
347760.800,339849.700,710595.900,710552.000,710414.900,710880.800,710794.300,711318.400,0.000
347528.000,339636.200,710581.200,710535.200,710400.700,710866.900,710779.900,711304.300,0.000
347128.300,339291.800,710562.700,710512.600,710382.600,710848.800,710762.100,711286.100,0.000
347250.700,339402.700,710572.200,710521.300,710392.000,710857.800,710771.300,711295.300,0.000
347620.400,339721.400,710592.400,710543.100,710412.100,710877.700,710791.300,711315.100,0.000
347489.300,339599.300,710580.900,710529.900,710400.300,710866.400,710779.700,711304.000,0.000
347038.400,339209.200,710558.100,710501.900,710378.100,710844.100,710757.400,711282.200,0.000
347082.300,339254.300,710568.800,710510.700,710389.400,710855.100,710768.500,711293.300,0.000
347466.900,339588.600,710592.900,710536.800,710412.900,710879.200,710792.400,711316.800,0.000
347466.900,339580.900,710591.600,710534.600,710411.400,710878.100,710791.100,711315.500,0.000
347010.100,339182.300,710567.400,710501.800,710387.600,710854.200,710767.400,711291.400,0.000
346944.300,339129.700,710569.600,710498.900,710390.300,710856.300,710769.700,711294.100,0.000
347315.300,339453.800,710591.800,710525.700,710412.900,710878.600,710791.800,711316.400,0.000
347430.400,339546.600,710597.400,710530.900,710418.600,710884.600,710797.700,711322.100,0.000
346979.000,339148.800,710568.900,710461.500,710390.600,710856.700,710769.700,711294.300,0.000
346800.600,338999.900,710559.900,710346.200,710384.000,710849.900,710762.500,711287.200,0.000
347135.100,339297.100,710585.900,710441.100,710408.200,710874.600,710787.200,711311.800,0.000
347353.500,339481.300,710597.400,710485.400,710419.300,710885.600,710798.600,711322.800,0.000
346960.700,339135.000,710564.600,710097.300,710395.900,710861.600,710774.400,711298.400,0.000
346691.900,338907.000,710547.400,709551.900,710386.400,710852.000,710764.700,711288.400,0.000
346965.600,339146.400,710567.700,709637.000,710406.500,710872.500,710785.100,711309.200,0.000
347261.600,339398.200,710583.900,709882.900,710422.200,710888.400,710800.500,711325.000,0.000
346951.200,339119.400,710562.500,709401.500,710401.900,710868.100,710780.300,711304.400,0.000
346610.800,338826.400,710550.300,708688.600,710391.100,710857.600,710769.500,711293.600,0.000
346809.300,339001.700,710567.600,708676.600,710407.900,710874.400,710786.300,711310.400,0.000
347154.200,339293.100,710583.700,708986.800,710423.300,710889.900,710801.900,711326.300,0.000
346947.400,339101.900,710569.100,708605.400,710409.600,710875.800,710788.400,711312.100,0.000
346529.600,338739.100,710548.500,707763.600,710390.400,710856.900,710769.100,711292.900,0.000
346649.600,338850.100,710560.900,707622.800,710403.200,710869.600,710782.000,711305.600,0.000
347035.700,339183.300,710584.400,707998.500,710426.400,710892.900,710805.000,711328.900,0.000
346943.300,339093.500,710575.500,707764.200,710417.900,710884.200,710796.300,711320.300,0.000
346484.600,338694.500,710549.600,706856.000,710393.300,710859.600,710771.900,711295.900,0.000
346500.700,338717.500,710558.300,706555.400,710402.400,710868.800,710780.900,711304.900,0.000
346884.700,339053.000,710583.400,706921.500,710427.300,710893.500,710805.800,711329.600,0.000
346912.100,339068.200,710580.900,706856.000,710425.000,710891.300,710803.600,711327.300,0.000
346452.700,338669.500,710553.700,705963.900,710399.100,710865.200,710776.900,711301.200,0.000
346360.300,338596.200,710554.900,705499.100,710400.900,710867.400,710779.200,711303.000,0.000
346722.300,338914.600,710579.600,705808.700,710425.300,710891.800,710803.600,711327.100,0.000
346868.800,339035.900,710586.100,705911.800,710431.300,710897.600,710809.800,711333.700,0.000
346434.500,338654.300,710560.000,705096.800,710405.900,710872.100,710784.500,711308.400,0.000
346232.500,338485.200,710552.500,704492.100,710399.200,710865.400,710777.400,711301.100,0.000
346558.000,338773.300,710577.300,704716.200,710423.600,710889.900,710801.900,711326.100,0.000
346799.000,338976.100,710590.300,704945.900,710436.000,710901.900,710814.800,711338.500,0.000
346425.800,338646.500,710566.100,704270.900,710412.900,710879.200,710791.400,711315.100,0.000
346124.800,338388.800,710553.100,703558.400,710400.700,710867.300,710779.600,711303.400,0.000
346388.700,338620.400,710575.300,703672.100,710422.700,710889.300,710801.500,711325.400,0.000
346712.500,338893.800,710593.200,703987.800,710440.700,710906.400,710818.900,711342.700,0.000
346433.200,338642.300,710574.100,703472.600,710422.300,710888.100,710800.400,711324.600,0.000
346062.200,338321.000,710555.300,702690.400,710404.400,710870.000,710782.300,711306.300,0.000
346235.400,338474.700,710567.900,702661.400,710417.300,710882.900,710795.300,711319.200,0.000
346597.200,338782.200,710590.100,703015.100,710439.100,710904.900,710817.300,711340.800,0.000
346420.100,338617.000,710579.300,702675.300,710428.000,710894.300,710806.000,711329.900,0.000
345990.000,338245.300,710556.400,701851.900,710406.300,710872.100,710784.200,711308.000,0.000
346074.500,338325.300,710566.900,701692.400,710416.900,710883.100,710794.900,711319.200,0.000
346458.800,338656.900,710590.400,702059.800,710440.200,710906.400,710818.100,711342.300,0.000
346397.100,338593.700,710582.800,701891.100,710432.600,710898.500,710810.200,711334.400,0.000
345941.000,338197.900,710558.600,701076.300,710409.400,710875.100,710787.200,711311.500,0.000
345918.800,338184.100,710564.400,700774.300,710415.200,710881.300,710793.300,711317.400,0.000
346313.100,338529.000,710591.100,701118.800,710441.600,710907.800,710819.700,711343.900,0.000
346381.300,338579.900,710592.900,701118.900,710443.200,710909.600,710821.400,711345.600,0.000
345922.200,338177.600,710564.400,700333.200,710415.800,710882.100,710793.600,711318.000,0.000
345799.700,338077.400,710563.300,699894.200,710414.800,710881.000,710792.800,711317.100,0.000
346150.900,338383.400,710588.300,700172.100,710439.600,710905.900,710817.600,711342.000,0.000
346333.500,338534.500,710597.200,700318.000,710448.600,710914.600,710826.800,711350.400,0.000
345918.000,338168.800,710569.400,699618.100,710421.600,710887.700,710799.800,711323.600,0.000
345697.700,337981.700,710562.000,699050.400,710414.800,710880.800,710792.400,711316.300,0.000
346008.300,338252.000,710585.300,699244.700,710437.600,710904.000,710815.600,711339.900,0.000
346272.300,338471.500,710597.200,699496.400,710449.400,710915.400,710827.500,711351.900,0.000
345917.000,338154.400,710575.500,698917.400,710428.100,710894.400,710806.300,711330.300,0.000
345610.800,337893.600,710562.900,698252.200,710416.200,710882.300,710794.200,711318.300,0.000
345848.500,338104.300,710581.800,698335.600,710434.600,710900.900,710812.900,711337.100,0.000
346180.200,338386.600,710600.700,698660.700,710452.900,710919.000,710831.200,711355.800,0.000
345933.700,338162.500,710584.600,698236.300,710437.600,710903.400,710815.400,711340.100,0.000
345537.800,337820.300,710565.100,697486.100,710419.000,710885.300,710797.100,711321.300,0.000
345688.900,337952.900,710580.100,697444.600,710434.300,710900.300,710812.000,711336.200,0.000
346070.400,338278.400,710604.900,697815.900,710458.900,710925.500,710836.800,711360.800,0.000
345931.800,338145.200,710591.600,697542.600,710445.600,710912.800,710823.800,711347.900,0.000
345490.600,337757.800,710566.400,696749.100,710421.200,710887.900,710798.800,711323.200,0.000
345540.100,337804.400,710572.400,696559.000,710427.300,710894.100,710805.200,711330.000,0.000
345926.300,338137.000,710595.300,696919.900,710449.900,710916.500,710827.900,711352.600,0.000
345916.000,338121.000,710591.900,696822.900,710446.500,710912.800,710824.900,711348.900,0.000
345454.900,337723.700,710566.000,696038.800,710421.300,710887.900,710799.000,711323.500,0.000
345408.500,337692.900,710571.600,695721.800,710426.600,710893.100,710804.600,711328.900,0.000
345781.100,338018.300,710596.400,696051.100,710451.200,710918.200,710829.400,711353.400,0.000
345873.000,338087.100,710598.800,696098.000,710454.100,710920.900,710832.100,711355.800,0.000
345431.100,337697.300,710573.700,695359.300,710429.600,710895.800,710807.400,711331.300,0.000
345284.200,337574.400,710571.600,694899.300,710427.000,710893.600,710805.000,711329.300,0.000
345634.200,337879.300,710596.700,695169.400,710451.900,710918.600,710830.100,711354.400,0.000
345841.300,338046.300,710607.300,695355.900,710462.400,710928.800,710840.400,711364.500,0.000
345435.000,337684.700,710581.300,694697.900,710437.100,710903.800,710815.000,711339.200,0.000
345185.500,337475.300,710574.300,694115.700,710430.600,710897.200,710808.300,711332.500,0.000
345470.300,337727.600,710596.100,694288.300,710452.300,710918.800,710830.500,711354.500,0.000
345754.900,337970.600,710610.700,694570.200,710466.600,710933.200,710844.800,711369.000,0.000
345430.800,337681.600,710588.200,694043.300,710444.100,710910.800,710822.000,711346.400,0.000
345089.100,337389.000,710571.400,693356.700,710428.000,710894.400,710805.400,711330.600,0.000
345301.800,337577.500,710590.500,693414.700,710447.400,710913.400,710824.700,711349.300,0.000
345649.700,337875.400,710612.300,693762.100,710468.600,710934.900,710846.200,711370.500,0.000
345430.200,337677.800,710596.300,693388.700,710453.200,710919.300,710830.800,711354.800,0.000
345020.600,337319.000,710576.600,692634.000,710434.400,710900.200,710811.300,711335.600,0.000
345144.500,337428.100,710588.600,692554.600,710445.700,710911.900,710823.300,711347.600,0.000
345523.000,337751.800,710610.900,692925.800,710467.800,710934.300,710845.300,711369.900,0.000
345417.500,337650.700,710599.800,692710.800,710457.300,710923.400,710834.600,711358.900,0.000
344964.300,337255.300,710575.300,691923.900,710432.600,710899.600,710810.400,711334.600,0.000
344995.900,337289.900,710585.300,691717.100,710443.000,710909.600,710820.400,711344.700,0.000
345379.600,337619.100,710608.900,692083.800,710466.100,710932.800,710843.900,711368.300,0.000
345391.300,337619.800,710606.400,692036.300,710463.800,710930.600,710841.500,711366.100,0.000
344933.600,337221.300,710579.500,691272.000,710437.400,710904.100,710815.100,711339.500,0.000
344860.400,337168.200,710583.300,690924.200,710441.200,710907.600,710818.800,711342.900,0.000
345233.300,337498.100,710609.000,691249.800,710466.900,710933.200,710844.700,711369.000,0.000
345367.400,337609.500,710612.400,691352.600,710470.300,710936.400,710847.900,711372.400,0.000
344924.900,337222.500,710583.700,690638.800,710441.800,710908.200,710819.400,711343.900,0.000
344746.400,337076.900,710579.900,690153.100,710438.300,710904.900,710815.800,711340.600,0.000
345080.700,337372.700,710605.700,690407.400,710464.000,710930.700,710841.500,711366.500,0.000
345306.400,337564.800,710616.100,690630.800,710474.400,710940.700,710851.900,711376.300,0.000
344926.100,337229.500,710591.900,690024.100,710449.900,710916.600,710827.800,711352.000,0.000
344652.000,336998.100,710583.400,689423.100,710441.600,710908.200,710819.300,711343.800,0.000
344924.400,337240.400,710605.700,689577.600,710464.200,710930.400,710842.100,711366.200,0.000
345229.900,337498.500,710620.600,689889.400,710479.200,710945.400,710856.900,711381.500,0.000
344936.900,337233.700,710600.400,689413.600,710458.600,710924.900,710836.100,711360.700,0.000
344580.300,336925.800,710584.000,688720.900,710442.300,710908.900,710819.900,711344.100,0.000
344762.200,337087.800,710598.800,688746.500,710457.800,710924.400,710835.400,711359.500,0.000
345125.000,337402.600,710621.100,689119.500,710479.600,710946.300,710857.300,711381.800,0.000
344934.700,337231.300,710605.400,688799.500,710464.000,710930.600,710841.900,711366.300,0.000
344509.600,336865.800,710583.100,688045.100,710442.000,710908.600,710819.800,711344.100,0.000
344613.200,336961.900,710594.600,687945.300,710453.600,710919.900,710831.200,711355.400,0.000
345007.200,337303.200,710620.400,688338.000,710479.200,710945.400,710856.700,711380.900,0.000
344938.800,337235.300,710613.800,688184.300,710472.900,710939.000,710850.400,711374.400,0.000
344485.800,336840.200,710590.500,687414.600,710449.900,710916.300,710827.400,711351.600,0.000
344489.000,336852.600,710598.600,687177.100,710457.500,710923.800,710835.100,711359.500,0.000
344875.700,337190.300,710622.900,687547.400,710482.100,710948.500,710859.600,711384.300,0.000
344928.500,337227.100,710623.600,687555.800,710482.800,710949.300,710860.100,711385.000,0.000
344459.300,336817.400,710592.700,686797.600,710451.700,710918.600,710829.600,711354.300,0.000
344349.700,336728.300,710589.000,686406.400,710448.600,710914.800,710826.000,711350.600,0.000
344714.800,337045.900,710614.800,686722.100,710474.000,710940.300,710851.700,711375.900,0.000
344876.200,337177.100,710620.600,686869.900,710480.000,710946.700,710858.100,711382.100,0.000
344458.100,336811.800,710596.700,686202.100,710456.600,710923.200,710834.300,711358.500,0.000
344250.700,336636.900,710592.700,685692.000,710452.400,710919.000,710830.300,711354.300,0.000
344566.700,336912.400,710614.800,685922.100,710474.300,710941.200,710851.800,711376.600,0.000
344824.500,337129.700,710628.100,686184.400,710487.300,710954.200,710865.400,711389.900,0.000
344462.100,336810.100,710606.500,685615.100,710466.300,710932.700,710843.700,711368.500,0.000
344154.200,336546.700,710593.800,684983.400,710453.600,710920.100,710831.000,711356.000,0.000
344411.600,336774.200,710614.100,685114.700,710474.000,710940.700,710851.600,711376.100,0.000
344736.700,337050.100,710632.000,685455.400,710491.700,710958.300,710869.300,711393.600,0.000
344478.300,336820.300,710613.900,685033.100,710473.400,710940.100,710851.100,711375.900,0.000
344094.800,336491.700,710593.200,684319.100,710453.100,710919.500,710831.000,711355.600,0.000
344265.700,336644.400,710609.800,684321.800,710470.000,710936.300,710847.800,711372.200,0.000
344629.200,336953.100,710630.200,684701.800,710490.100,710956.400,710867.700,711392.400,0.000
344468.400,336802.400,710615.000,684434.300,710476.400,710942.800,710853.800,711378.300,0.000
344030.500,336422.900,710572.900,683673.400,710451.500,710917.900,710828.100,711352.800,0.000
344109.600,336498.500,710577.000,683543.800,710460.700,710927.100,710837.100,711362.000,0.000
344501.700,336837.500,710626.200,683940.600,710489.300,710955.900,710867.100,711391.900,0.000
344466.100,336798.300,710618.400,683841.000,710484.800,710951.400,710862.200,711386.900,0.000
343998.800,336391.900,710588.000,683112.100,710456.300,710923.100,710833.800,711358.200,0.000
343951.400,336355.600,710593.000,683061.600,710456.600,710923.300,710834.500,711358.600,0.000
344332.300,336688.000,710614.100,683678.800,710480.600,710947.000,710858.000,711382.300,0.000
344419.300,336757.100,710617.800,683781.300,710484.100,710950.800,710861.300,711385.900,0.000
343971.200,336366.800,710589.500,683069.400,710457.600,710924.400,710834.900,711359.300,0.000
343826.700,336247.000,710590.800,682851.600,710452.600,710919.100,710829.900,711354.400,0.000
344180.000,336556.800,710606.200,683416.500,710474.800,710941.400,710851.900,711376.300,0.000
344371.300,336713.900,710613.800,683701.100,710482.300,710948.800,710859.400,711384.200,0.000
343957.600,336347.400,710589.600,683041.700,710458.100,710924.900,710835.100,711359.900,0.000
343717.000,336145.100,710587.800,682675.000,710448.400,710915.100,710825.900,711350.200,0.000
344016.300,336408.000,710603.200,683132.000,710468.800,710935.400,710846.100,711370.600,0.000
344297.900,336647.800,710613.600,683596.500,710484.600,710950.800,710861.300,711386.100,0.000
343961.500,336350.100,710596.100,683070.100,710464.700,710930.900,710841.600,711366.400,0.000
343632.400,336069.600,710588.600,682575.800,710449.400,710915.800,710826.900,711351.400,0.000
343863.500,336276.600,710604.300,682898.600,710467.800,710934.000,710845.100,711369.400,0.000
344209.800,336570.500,710611.300,683455.500,710485.200,710951.400,710862.300,711386.900,0.000
343971.600,336353.900,710597.600,683091.600,710469.100,710935.100,710845.900,711370.600,0.000
343557.300,335997.200,710585.600,682470.400,710446.600,710912.600,710823.800,711348.400,0.000
343701.500,336128.000,710598.100,682641.300,710459.500,710925.800,710836.800,711361.600,0.000
344086.200,336458.000,710608.300,683234.700,710482.100,710948.300,710858.600,711383.100,0.000
343961.500,336337.000,710599.400,683202.600,710472.700,710938.800,710849.400,711373.800,0.000
343514.500,335951.100,710589.100,682619.700,710449.900,710916.300,710827.800,711352.200,0.000
343555.500,335992.900,710595.200,682619.700,710455.700,710922.500,710833.300,711358.400,0.000
343943.800,336327.000,710609.100,683178.400,710480.300,710946.800,710857.400,711382.100,0.000
343936.700,336314.300,710597.700,683280.400,710473.800,710940.600,710850.900,711375.100,0.000
343476.200,335914.000,710585.400,682680.400,710446.800,710913.900,710824.500,711349.100,0.000
343420.300,335875.100,710591.600,682525.100,710451.400,710917.900,710829.300,711353.900,0.000
343797.500,336201.500,710608.800,683026.700,710475.300,710941.500,710852.800,711377.100,0.000
343918.600,336300.100,710602.600,683276.800,710477.900,710944.300,710854.700,711379.200,0.000
343470.100,335909.400,710588.600,682713.600,710451.100,710917.400,710828.500,711352.800,0.000
343298.800,335768.100,710584.900,682395.300,710445.400,710911.700,710822.900,711346.800,0.000
343638.300,336064.100,710605.900,682810.300,710467.500,710934.000,710845.400,711369.600,0.000
343854.200,336241.200,710612.400,683168.100,710478.800,710945.400,710856.300,711380.900,0.000
343463.900,335894.300,710592.200,682685.100,710453.400,710920.100,710830.800,711355.600,0.000
343204.200,335672.900,710582.200,682233.500,710442.300,710909.000,710819.800,711344.400,0.000
343493.200,335925.100,710604.600,682540.300,710464.800,710931.100,710841.900,711366.600,0.000
343798.700,336180.600,710621.400,682980.300,710482.000,710948.100,710859.400,711383.800,0.000
343494.900,335909.400,710602.100,682618.600,710462.700,710928.800,710840.300,711364.400,0.000
343151.200,335616.100,710585.300,682065.800,710445.800,710912.400,710823.800,711347.800,0.000
343355.000,335798.700,710601.500,682242.400,710461.300,710928.000,710839.700,711363.800,0.000
343714.200,336106.200,710621.900,682733.400,710482.000,710948.300,710859.900,711384.000,0.000
343505.200,335914.800,710605.900,682506.400,710466.400,710932.600,710843.700,711368.300,0.000
343088.400,335556.800,710583.300,681871.800,710443.900,710910.400,710820.800,711345.900,0.000
343209.300,335669.100,710596.900,681910.700,710457.300,710923.800,710834.500,711359.100,0.000
343602.600,336007.500,710621.600,682414.000,710481.400,710947.900,710858.800,711383.800,0.000
343520.800,335928.200,710615.000,682352.400,710475.200,710941.400,710852.600,711377.000,0.000
343065.000,335532.900,710589.100,681687.200,710449.200,710915.700,710826.900,711351.100,0.000
343077.100,335551.600,710594.000,681569.900,710454.200,710920.900,710832.200,711356.400,0.000
343472.700,335894.100,710619.100,682053.300,710479.600,710946.100,710857.200,711381.700,0.000
343509.800,335918.900,710619.100,682143.100,710479.100,710945.800,710857.100,711381.300,0.000
343052.600,335521.700,710595.900,681499.000,710456.100,710922.700,710833.800,711358.100,0.000
342960.600,335448.600,710597.800,681236.800,710458.100,710924.400,710835.500,711359.900,0.000
343330.200,335770.100,710621.100,681660.200,710481.800,710947.700,710858.800,711383.400,0.000
343476.600,335888.300,710626.900,681886.300,710487.600,710953.900,710865.000,711389.600,0.000
343041.100,335506.800,710597.800,681290.400,710458.600,710924.900,710835.900,711360.500,0.000
342843.000,335341.400,710590.900,680883.300,710451.200,710917.800,710828.700,711353.100,0.000
343173.800,335632.000,710614.600,681227.500,710474.600,710941.200,710852.200,711376.500,0.000
343415.100,335830.900,710626.300,681562.300,710486.500,710952.800,710864.000,711388.300,0.000
343049.900,335506.800,710601.100,681071.400,710461.700,710927.900,710838.900,711363.100,0.000
342760.600,335262.700,710589.000,680550.100,710449.400,710915.700,710826.900,711351.200,0.000
343029.100,335499.300,710609.900,680785.400,710470.400,710936.900,710848.400,711372.600,0.000
343351.600,335772.500,710627.800,681204.600,710488.100,710954.600,710865.900,711390.500,0.000
343070.600,335521.900,710606.800,680841.600,710467.400,710933.900,710844.600,711369.400,0.000
342700.200,335202.500,710589.900,680226.800,710450.300,710917.000,710828.000,711352.300,0.000
342891.000,335373.600,710608.400,680337.900,710468.800,710935.600,710846.500,711371.100,0.000
343267.800,335696.600,710631.600,680807.700,710491.900,710958.400,710869.400,711393.800,0.000
343092.300,335533.500,710615.100,680591.700,710475.000,710942.100,710853.300,711377.600,0.000
342661.500,335159.200,710593.600,679915.800,710454.000,710920.800,710831.800,711356.100,0.000
342761.600,335253.200,710605.200,679889.700,710465.500,710932.500,710843.400,711367.600,0.000
343156.600,335593.300,710629.600,680359.300,710489.700,710956.800,710867.500,711391.900,0.000
343109.400,335544.800,710623.600,680311.100,710483.900,710950.600,710861.500,711385.700,0.000
342651.000,335147.300,710600.400,679623.100,710460.800,710927.100,710837.800,711362.400,0.000
342633.400,335137.000,710603.300,679439.100,710463.800,710930.300,710841.000,711365.600,0.000
343025.400,335478.300,710627.100,679883.400,710487.700,710954.200,710865.400,711389.800,0.000
343095.500,335529.400,710626.000,679988.900,710486.300,710952.900,710864.000,711388.400,0.000
342644.500,335132.200,710601.000,679327.600,710461.500,710927.900,710839.100,711363.600,0.000
342528.100,335039.300,710602.800,679007.900,710463.200,710929.600,710840.600,711365.600,0.000
342889.500,335356.100,710627.200,679392.800,710487.800,710954.400,710864.900,711390.300,0.000
343071.400,335506.600,710633.800,679633.300,710494.100,710961.200,710871.900,711396.600,0.000
342650.400,335136.100,710607.300,679037.600,710467.600,710934.800,710845.800,711369.900,0.000
342432.700,334954.400,710601.000,678583.700,710461.300,710928.500,710839.400,711363.700,0.000
342750.300,335231.800,710624.600,678882.100,710485.200,710952.300,710863.000,711387.300,0.000
343021.000,335456.300,710639.400,679229.900,710499.900,710966.800,710877.600,711402.300,0.000
342664.700,335137.300,710615.400,678747.700,710476.100,710942.700,710853.400,711377.900,0.000
342359.800,334878.400,710603.600,678186.900,710464.300,710930.800,710841.800,711366.300,0.000
342606.600,335093.900,710622.300,678374.400,710483.100,710949.800,710860.700,711385.100,0.000
342942.900,335375.700,710639.500,678792.400,710499.900,710966.400,710877.500,711402.100,0.000
342692.700,335152.000,710623.100,678454.900,710483.600,710950.300,710860.800,711385.600,0.000
342300.300,334817.900,710602.600,677795.300,710463.100,710930.200,710840.500,711365.300,0.000
342459.800,334964.300,710618.100,677849.100,710478.800,710945.600,710856.100,711380.700,0.000
342836.500,335286.200,710640.600,678308.500,710501.300,710967.800,710878.400,711402.800,0.000
342707.800,335169.500,710631.100,678138.600,710491.600,710958.000,710869.200,711393.600,0.000
342267.800,334789.700,710606.200,677438.900,710466.700,710933.200,710844.200,711368.700,0.000
342332.900,334853.300,710615.300,677354.000,710475.900,710942.100,710853.000,711377.400,0.000
342724.900,335191.500,710639.100,677811.900,710499.500,710966.200,710877.100,711401.300,0.000
342703.100,335163.500,710635.200,677795.900,710495.500,710962.200,710872.800,711397.300,0.000
342244.600,334768.300,710610.000,677102.700,710469.900,710936.900,710847.800,711372.100,0.000
342206.800,334744.300,710613.800,676872.200,710474.000,710941.000,710851.500,711376.100,0.000
342592.800,335080.000,710638.300,677292.600,710498.500,710965.600,710876.100,711400.900,0.000
342702.000,335168.500,710641.400,677437.300,710501.800,710968.900,710879.200,711404.100,0.000
342257.400,334780.300,710616.200,676785.900,710477.100,710943.300,710854.400,711378.800,0.000
342105.000,334653.100,710614.600,676410.600,710475.400,710941.600,710852.800,711376.900,0.000
342459.400,334961.300,710637.900,676761.100,710498.600,710965.100,710875.600,711400.300,0.000
342675.300,335137.600,710647.600,677027.900,710508.000,710974.700,710885.000,711409.700,0.000
342271.000,334781.200,710620.400,676452.800,710480.300,710947.600,710858.000,711382.300,0.000
342016.500,334566.000,710610.600,675947.900,710471.300,710938.500,710848.400,711373.200,0.000
342315.200,334829.500,710634.800,676212.400,710495.600,710962.400,710872.800,711397.800,0.000
342611.000,335078.900,710650.400,676582.400,710510.900,710978.000,710888.300,711412.900,0.000
342290.700,334795.400,710630.600,676139.300,710491.100,710958.100,710868.600,711393.300,0.000
341953.400,334507.300,710615.400,675534.100,710476.100,710942.900,710853.300,711377.900,0.000
342180.600,334709.400,710634.300,675677.300,710494.800,710961.600,710871.900,711396.900,0.000
342536.800,335013.300,710655.500,676107.300,710516.100,710982.600,710893.300,711418.300,0.000
342321.100,334818.800,710639.900,675809.100,710500.400,710966.800,710877.700,711402.400,0.000
341917.800,334471.300,710617.100,675135.300,710477.800,710944.100,710855.300,711379.700,0.000
342041.300,334580.700,710628.100,675137.400,710488.800,710955.300,710865.900,711390.500,0.000
342434.900,334918.900,710651.800,675597.000,710512.100,710979.000,710889.500,711413.900,0.000
342337.200,334827.300,710641.900,675468.900,710502.400,710969.100,710880.000,711404.500,0.000
341893.800,334446.800,710619.400,674771.800,710480.000,710946.600,710857.700,711381.900,0.000
341926.200,334480.900,710627.000,674641.400,710487.500,710954.100,710864.900,711389.600,0.000
342329.400,334829.300,710653.800,675092.800,710513.800,710980.600,710891.300,711416.200,0.000
342353.400,334840.900,710651.600,675122.900,710511.800,710978.600,710889.300,711413.900,0.000
341894.000,334440.300,710623.900,674427.800,710484.100,710950.800,710861.800,711386.300,0.000
341826.200,334386.200,710626.100,674150.900,710486.200,710952.900,710864.000,711388.600,0.000
342198.400,334707.700,710649.800,674547.900,710510.300,710977.000,710887.800,711412.700,0.000
342330.200,334810.800,710653.600,674718.600,710514.000,710980.400,710891.000,711416.100,0.000
341902.700,334434.900,710629.800,674087.600,710490.600,710957.000,710867.600,711392.500,0.000
341730.500,334292.100,710626.300,673680.100,710486.600,710953.100,710863.800,711388.600,0.000
342063.500,334580.900,710648.100,674003.300,710508.200,710974.900,710885.300,711410.800,0.000
342299.800,334777.200,710659.600,674302.400,710519.300,710986.100,710896.800,711421.800,0.000
341925.800,334445.700,710637.700,673768.600,710497.500,710964.900,710875.400,711400.100,0.000
341655.700,334213.800,710626.900,673238.700,710486.900,710954.100,710864.600,711389.300,0.000
341927.600,334453.300,710646.700,673456.200,710506.900,710973.700,710884.100,711409.100,0.000
342240.400,334715.300,710662.900,673835.900,710523.000,710989.900,710900.400,711425.100,0.000
341947.600,334450.300,710642.800,673425.300,710502.800,710970.100,710880.300,711405.300,0.000
341592.600,334147.100,710626.900,672801.100,710486.800,710953.800,710864.200,711388.900,0.000
341794.800,334326.800,710644.600,672911.100,710504.400,710971.600,710881.800,711406.500,0.000
342158.000,334636.400,710664.400,673347.300,710524.300,710991.400,710901.800,711426.600,0.000
341971.700,334463.800,710650.300,673092.500,710510.300,710977.800,710887.800,711412.900,0.000
341550.000,334099.100,710628.800,672404.600,710488.700,710956.400,710866.300,711391.100,0.000
341654.700,334199.800,710640.300,672375.800,710500.100,710967.400,710877.900,711402.500,0.000
342048.000,334540.700,710665.200,672830.800,710525.100,710992.600,710903.000,711427.800,0.000
341981.200,334471.300,710657.300,672737.300,710517.800,710984.800,710895.200,711419.800,0.000
341523.600,334071.300,710632.400,672023.900,710492.600,710959.300,710869.800,711395.000,0.000
341532.200,334083.200,710640.900,671848.400,710500.800,710967.600,710878.300,711403.300,0.000
341928.300,334424.000,710666.900,672284.300,710527.200,710993.900,710904.400,711429.000,0.000
341983.100,334464.000,710664.100,672353.600,710524.700,710991.300,710901.400,711426.400,0.000
341526.700,334066.100,710639.600,671667.400,710499.800,710967.100,710876.900,711402.300,0.000
341423.900,333982.200,710639.400,671348.000,710499.500,710966.400,710876.500,711401.700,0.000
341791.900,334303.100,710663.600,671726.600,710523.400,710990.200,710900.700,711425.800,0.000
341955.700,334439.600,710669.600,671931.800,710529.800,710996.800,710907.100,711432.000,0.000
341535.100,334072.700,710644.900,671319.400,710505.100,710971.800,710882.500,711407.400,0.000
341340.900,333910.800,710641.000,670876.600,710501.100,710968.000,710878.400,711403.400,0.000
341658.200,334186.700,710662.100,671165.100,710522.000,710989.200,710899.600,711424.400,0.000
341912.300,334396.100,710670.600,671479.100,710530.500,710997.500,710908.100,711432.800,0.000
341558.500,334082.700,710648.700,670970.800,710508.400,710974.900,710885.600,711410.400,0.000
341255.600,333825.900,710637.400,670398.300,710496.800,710963.600,710873.900,711398.900,0.000
341510.900,334050.200,710656.100,670582.100,710514.900,710982.300,710892.400,711417.700,0.000
341844.900,334335.700,710674.600,670984.600,710533.800,711001.000,710911.500,711436.600,0.000
341581.300,334100.600,710656.600,670620.400,710516.200,710983.000,710893.600,711418.400,0.000
341209.400,333783.400,710640.400,669975.100,710500.500,710967.600,710878.100,711402.700,0.000
341385.900,333940.900,710657.000,670043.600,710516.800,710984.200,710894.300,711419.300,0.000
341763.700,334262.100,710678.700,670490.500,710538.500,711005.400,710916.100,711440.600,0.000
341615.900,334126.300,710668.400,670284.900,710527.900,710994.600,710905.300,711430.100,0.000
341182.100,333751.400,710644.900,669583.100,710504.300,710971.300,710881.500,711406.500,0.000
341261.400,333827.000,710655.800,669513.300,710515.400,710982.400,710892.700,711417.600,0.000
341651.700,334162.900,710678.400,669958.400,710537.700,711004.600,710915.700,711440.700,0.000
341616.800,334123.600,710673.600,669911.900,710532.800,711000.000,710911.200,711435.900,0.000
341154.100,333722.500,710647.600,669198.100,710506.800,710974.000,710884.800,711409.800,0.000
341135.800,333712.800,710652.100,668987.800,710511.800,710978.700,710889.500,711414.500,0.000
341532.200,334057.000,710678.300,669415.900,710537.900,711004.600,710915.900,711440.300,0.000
341611.200,334116.800,710678.100,669519.400,710537.700,711004.000,710915.300,711440.300,0.000
341160.300,333724.900,710649.000,668847.300,710508.400,710975.600,710886.000,711411.200,0.000
341029.900,333621.100,710646.400,668491.800,710505.900,710973.400,710883.800,711408.500,0.000
341390.800,333934.400,710671.900,668853.800,710531.500,710998.800,710909.100,711434.100,0.000
341594.800,334103.400,710682.800,669107.400,710542.300,711009.600,710920.300,711445.000,0.000
341184.100,333743.000,710659.100,668519.200,710518.900,710986.100,710896.800,711421.400,0.000
340942.400,333536.000,710648.700,668024.300,710508.100,710975.100,710886.000,711410.800,0.000
341247.800,333803.300,710670.000,668291.400,710529.400,710996.400,710907.300,711431.800,0.000
341530.300,334043.500,710684.600,668642.600,710544.400,711011.500,710921.900,711446.700,0.000
341199.300,333752.100,710663.400,668177.800,710523.200,710990.200,710900.900,711425.600,0.000
340877.600,333476.300,710650.900,667589.500,710510.300,710977.600,710887.900,711412.900,0.000
341109.900,333679.700,710669.100,667748.000,710528.800,710996.100,710906.500,711431.300,0.000
341460.300,333980.100,710687.500,668170.800,710547.300,711014.800,710924.800,711449.900,0.000
341229.400,333772.300,710671.500,667848.500,710530.900,710998.100,710908.100,711433.400,0.000
340830.000,333430.000,710652.100,667177.500,710511.200,710978.400,710888.800,711413.600,0.000
340981.900,333569.200,710665.400,667205.900,710524.800,710991.900,710902.600,711427.000,0.000
341369.400,333902.500,710688.400,667661.700,710547.800,711015.000,710925.700,711450.200,0.000
341248.000,333789.300,710678.600,667501.400,710538.200,711005.400,710915.800,711440.900,0.000
340808.600,333409.200,710655.500,666797.800,710514.700,710981.900,710892.300,711417.200,0.000
340871.600,333469.600,710667.100,666698.100,710526.600,710993.800,710904.300,711428.700,0.000
341267.300,333807.100,710689.700,667144.700,710549.300,711016.100,710927.100,711451.800,0.000
341271.400,333800.200,710685.600,667148.000,710544.900,711012.100,710922.900,711447.500,0.000
340815.200,333401.400,710660.200,666446.900,710519.400,710986.900,710897.200,711422.200,0.000
340766.300,333363.300,710663.200,666195.100,710522.200,710989.400,710899.800,711424.600,0.000
341153.600,333700.800,710687.800,666607.600,710547.100,711014.100,710924.600,711449.300,0.000
341271.700,333793.900,710692.400,666760.300,710552.000,711018.900,710929.600,711454.200,0.000
340831.800,333408.600,710668.600,666110.100,710527.700,710994.600,710905.600,711430.100,0.000
340658.200,333264.600,710660.900,665703.900,710520.100,710986.900,710898.000,711422.600,0.000
341011.700,333574.000,710686.000,666048.600,710545.400,711012.300,710923.400,711447.800,0.000
341236.800,333763.300,710698.200,666333.400,710557.300,711024.100,710935.400,711459.800,0.000
340842.900,333416.500,710673.300,665775.200,710532.600,710999.400,710910.300,711434.700,0.000
340583.700,333197.800,710662.500,665262.800,710521.600,710988.400,710899.300,711424.300,0.000
340873.900,333451.700,710683.900,665507.900,710542.900,711009.800,710920.600,711445.600,0.000
341181.500,333708.000,710698.900,665885.600,710558.300,711024.900,710936.100,711460.400,0.000
340881.300,333441.100,710678.900,665464.200,710538.500,711005.300,710915.900,711440.600,0.000
340531.800,333139.300,710662.600,664851.100,710522.000,710988.800,710899.100,711423.900,0.000
340721.600,333304.000,710678.900,664951.300,710538.600,711005.400,710915.700,711440.300,0.000
341091.200,333621.100,710700.500,665383.500,710559.900,711026.800,710937.600,711461.900,0.000
340894.300,333441.400,710685.000,665119.000,710543.900,711011.200,710922.100,711446.300,0.000
340479.400,333084.000,710662.300,664435.600,710521.600,710988.600,710899.100,711423.700,0.000
340626.400,333215.600,710676.900,664457.900,710536.300,711003.300,710913.700,711438.400,0.000
341018.800,333550.400,710699.300,664920.900,710558.900,711025.600,710936.500,711461.100,0.000
340942.100,333472.800,710690.100,664814.400,710549.600,711016.300,710927.100,711451.600,0.000
340483.600,333073.000,710666.600,664097.600,710526.100,710992.800,710903.400,711428.200,0.000
340492.500,333088.200,710673.300,663931.700,710532.800,710999.600,710910.100,711434.900,0.000
340894.100,333436.100,710699.100,664384.100,710558.300,711024.900,710935.800,711460.600,0.000
340947.100,333472.800,710699.700,664452.100,710558.900,711025.800,710936.300,711461.100,0.000
340483.300,333070.100,710672.300,663754.200,710531.500,710997.900,710908.600,711433.200,0.000
340383.000,332992.800,710673.100,663439.900,710531.900,710999.000,710909.400,711434.100,0.000
340767.500,333330.300,710698.400,663843.800,710557.200,711024.300,710934.800,711459.600,0.000
340936.800,333469.800,710704.100,664060.100,710563.300,711030.100,710940.700,711465.700,0.000
340499.700,333084.700,710675.000,663429.100,710533.900,711000.800,710911.200,711436.300,0.000
340289.600,332907.300,710670.300,662978.700,710529.100,710996.100,710906.500,711431.600,0.000
340626.800,333199.300,710694.800,663301.100,710553.800,711020.800,710931.300,711456.100,0.000
340894.000,333421.200,710706.800,663640.400,710566.000,711033.000,710943.400,711468.100,0.000
340525.300,333094.100,710683.400,663117.800,710542.700,711009.400,710919.800,711444.400,0.000
340221.200,332834.300,710670.100,662548.900,710529.100,710995.900,710906.400,711431.000,0.000
340496.800,333079.900,710692.600,662768.300,710551.900,711018.800,710929.200,711453.800,0.000
340839.400,333372.600,710712.100,663193.200,710571.200,711038.300,710948.800,711473.900,0.000
340568.000,333131.700,710694.100,662820.700,710552.900,711019.800,710930.600,711455.400,0.000
340175.000,332795.000,710672.700,662157.300,710531.500,710998.600,710909.400,711433.800,0.000
340354.400,332959.600,710689.200,662236.900,710548.100,711015.200,710925.800,711450.500,0.000
340752.800,333301.700,710711.900,662707.200,710570.600,711037.900,710948.600,711473.600,0.000
340591.100,333149.900,710698.300,662488.100,710556.900,711024.300,710935.300,711459.900,0.000
340145.600,332763.500,710673.100,661779.100,710531.600,710998.800,710909.400,711434.100,0.000
340227.000,332839.400,710683.100,661718.300,710541.800,711008.800,710919.500,711444.300,0.000
340639.100,333195.600,710709.800,662196.700,710568.400,711035.700,710946.100,711471.000,0.000
340602.500,333155.800,710704.600,662150.900,710563.300,711030.200,710941.100,711465.700,0.000
340136.600,332751.600,710680.000,661438.600,710538.600,711005.400,710916.100,711440.700,0.000
340121.000,332744.300,710686.800,661237.500,710545.600,711012.000,710923.100,711447.600,0.000
340524.000,333090.700,710709.100,661679.300,710568.000,711034.900,710945.600,711470.400,0.000
340602.300,333147.900,710708.200,661787.700,710567.300,711034.300,710944.600,711469.400,0.000
340144.000,332749.400,710682.400,661114.300,710541.100,711008.300,710919.000,711443.100,0.000
340020.700,332649.800,710682.300,660769.800,710540.600,711007.600,710918.600,711443.300,0.000
340391.300,332970.900,710706.500,661151.600,710565.200,711031.800,710942.900,711467.600,0.000
340590.800,333135.600,710713.400,661408.600,710572.100,711038.800,710949.800,711474.400,0.000
340169.200,332765.900,710689.600,660811.100,710547.800,711014.700,710925.700,711450.100,0.000
339938.100,332572.700,710683.500,660332.900,710541.500,711008.500,710919.700,711443.800,0.000
340260.800,332854.900,710706.600,660631.800,710564.800,711032.200,710942.900,711467.600,0.000
340552.300,333101.800,710719.400,661000.200,710577.800,711045.100,710955.600,711480.600,0.000
340201.700,332793.300,710697.300,660517.700,710556.100,711023.100,710933.800,711458.200,0.000
339871.800,332514.200,710680.900,659925.600,710539.800,711006.400,710917.500,711441.900,0.000
340115.600,332731.800,710699.100,660101.400,710558.100,711024.900,710936.000,711460.500,0.000
340473.900,333035.800,710719.600,660542.700,710578.200,711045.500,710956.200,711480.800,0.000
340226.300,332811.900,710703.000,660215.400,710561.400,711028.500,710939.400,711463.900,0.000
339825.700,332471.200,710684.400,659552.700,710542.700,711009.900,710920.500,711445.300,0.000
339993.800,332622.800,710701.000,659609.500,710559.600,711026.400,710937.100,711461.800,0.000
340388.800,332959.400,710722.400,660084.300,710581.100,711048.200,710958.600,711483.300,0.000
340251.100,332830.500,710708.000,659905.600,710566.400,711033.600,710944.200,711468.800,0.000
339795.500,332435.500,710682.100,659188.500,710540.200,711007.600,710918.600,711443.100,0.000
339850.500,332487.800,710688.300,659085.400,710546.500,711013.400,710924.400,711449.200,0.000
340269.500,332848.400,710713.800,659563.400,710572.200,711039.300,710950.000,711474.800,0.000
340278.000,332847.500,710714.900,659575.100,710573.000,711040.600,710950.800,711475.600,0.000
339814.800,332446.400,710692.600,658875.300,710550.200,711017.900,710928.400,711452.600,0.000
339767.500,332413.600,710696.400,658635.900,710554.400,711021.600,710932.400,711456.600,0.000
340157.300,332749.200,710718.400,659062.900,710576.400,711043.600,710954.300,711479.100,0.000
340270.500,332835.400,710720.500,659219.700,710578.600,711046.200,710956.600,711481.100,0.000
339819.800,332439.300,710694.900,658565.400,710553.100,711020.100,710930.500,711454.900,0.000
339664.600,332313.400,710690.600,658181.800,710548.900,711015.600,710926.100,711450.800,0.000
340029.300,332633.300,710715.300,658552.900,710573.000,711040.100,710950.800,711475.400,0.000
340259.100,332823.700,710725.300,658847.900,710583.300,711050.500,710961.200,711485.600,0.000
339859.100,332470.900,710702.400,658282.100,710560.000,711027.400,710938.100,711462.100,0.000
339599.700,332253.000,710692.900,657768.900,710550.400,711017.600,710928.400,711452.800,0.000
339898.300,332510.600,710712.800,658026.800,710570.400,711037.600,710948.600,711473.100,0.000
340222.800,332785.600,710730.600,658429.900,710588.400,711055.700,710966.600,711490.800,0.000
339907.900,332508.100,710709.600,657999.600,710567.300,711034.600,710945.200,711469.600,0.000
339544.100,332196.400,710692.100,657378.000,710549.600,711016.900,710927.800,711451.900,0.000
339759.000,332386.400,710710.800,657516.300,710568.600,711035.900,710946.700,711470.400,0.000
340130.500,332706.600,710729.800,657967.500,710587.900,711054.900,710965.700,711489.500,0.000
339919.600,332519.200,710711.700,657686.900,710570.100,711037.400,710947.900,711472.000,0.000
339509.800,332167.600,710691.300,657014.400,710549.600,711016.800,710927.500,711451.400,0.000
339639.900,332284.000,710705.300,657026.900,710563.500,711030.800,710941.400,711465.800,0.000
340052.700,332638.900,710729.300,657515.400,710587.400,711054.700,710965.400,711489.800,0.000
339959.600,332548.300,710721.300,657401.300,710579.000,711046.300,710957.100,711481.800,0.000
339507.300,332158.900,710696.600,656693.700,710554.300,711021.600,710931.900,711457.100,0.000
339528.800,332183.900,710702.700,656552.800,710560.500,711027.600,710938.100,711463.100,0.000
339940.600,332538.400,710726.500,657022.500,710584.300,711051.400,710962.600,711486.900,0.000
339971.400,332554.500,710725.100,657072.600,710582.600,711050.000,710961.300,711485.600,0.000
339506.600,332153.100,710700.800,656381.300,710557.900,711025.500,710936.300,711460.700,0.000
339422.500,332087.000,710701.800,656100.200,710558.900,711026.200,710937.100,711461.600,0.000
339818.700,332431.500,710727.900,656522.400,710584.900,711052.200,710963.100,711487.500,0.000
339971.700,332557.100,710733.100,656721.200,710590.500,711057.600,710968.300,711492.800,0.000
339534.000,332173.100,710706.100,656089.700,710563.600,711030.800,710941.500,711466.100,0.000
339344.400,332011.800,710700.300,655669.900,710557.600,711024.600,710935.100,711459.900,0.000
339691.600,332314.900,710723.400,656014.600,710580.700,711047.900,710958.300,711483.100,0.000
339948.400,332530.800,710734.600,656345.400,710591.900,711059.400,710970.100,711494.500,0.000
339563.100,332191.400,710709.400,655814.800,710566.800,711034.300,710945.000,711469.600,0.000
339276.900,331949.300,710699.900,655283.400,710557.700,711024.900,710935.200,711459.600,0.000
339556.400,332192.800,710719.600,655521.400,710577.400,711044.200,710955.200,711479.600,0.000
339897.300,332481.200,710737.500,655943.600,710594.800,711061.500,710972.800,711497.400,0.000
339600.500,332214.700,710717.200,655546.800,710574.600,711041.200,710952.200,711476.600,0.000
339233.300,331900.000,710700.700,654912.100,710557.800,711024.700,710935.200,711460.000,0.000
339432.300,332075.100,710716.800,655020.900,710574.100,711041.100,710951.300,711476.300,0.000
339816.600,332401.400,710738.300,655487.600,710596.100,711062.600,710973.200,711497.600,0.000
339636.500,332237.500,710725.300,655257.000,710582.900,711049.500,710959.900,711484.800,0.000
339206.900,331870.600,710701.800,654568.900,710559.600,711025.800,710936.200,711461.300,0.000
339311.000,331966.900,710715.100,654542.700,710572.400,711039.000,710949.500,711474.200,0.000
339730.100,332328.100,710742.800,655037.800,710600.000,711066.900,710977.200,711502.400,0.000
339670.700,332269.100,710735.200,654972.700,710592.400,711059.100,710969.800,711494.900,0.000
339201.600,331864.800,710708.500,654261.300,710565.600,711032.800,710942.800,711467.700,0.000
339193.900,331865.500,710712.100,654082.000,710569.400,711036.400,710946.400,711471.400,0.000
339604.900,332220.200,710736.600,654549.900,710594.100,711060.300,710971.100,711496.000,0.000
339674.700,332273.600,710737.300,654652.900,710594.300,711060.700,710972.000,711496.300,0.000
339210.400,331869.900,710710.800,653973.900,710567.600,711034.500,710945.400,711469.400,0.000
339097.800,331778.900,710710.700,653656.100,710567.600,711034.400,710944.800,711469.400,0.000
339479.500,332111.100,710734.000,654062.800,710590.900,711057.800,710968.200,711492.900,0.000
339671.300,332273.700,710744.000,654318.900,710601.100,711067.900,710978.800,711502.900,0.000
339241.700,331897.900,710718.900,653713.600,710575.700,711042.600,710953.100,711477.700,0.000
339023.800,331716.300,710709.600,653263.600,710566.400,711033.300,710944.000,711468.800,0.000
339361.500,332011.600,710733.500,653594.200,710589.800,711056.700,710967.800,711492.400,0.000
339645.900,332250.400,710748.300,653963.900,710604.800,711071.700,710982.800,711507.100,0.000
339286.000,331933.700,710723.600,653471.700,710580.400,711047.300,710958.400,711482.600,0.000
338975.800,331669.900,710710.300,652910.700,710567.400,711034.100,710945.000,711469.500,0.000
339229.200,331889.100,710728.400,653115.100,710585.500,711052.600,710963.300,711487.700,0.000
339586.600,332193.500,710748.300,653563.300,710605.400,711072.700,710982.800,711507.800,0.000
339329.800,331964.400,710730.000,653217.900,710587.300,711054.400,710964.600,711489.100,0.000
338945.700,331633.400,710710.100,652571.100,710567.200,711034.000,710944.500,711469.000,0.000
339124.500,331794.400,710726.700,652653.600,710584.200,711050.700,710961.400,711485.900,0.000
339520.300,332130.600,710750.800,653135.100,710608.200,711074.600,710985.600,711510.100,0.000
339370.100,331989.800,710739.200,652947.100,710596.100,711063.200,710974.000,711498.300,0.000
338928.200,331608.800,710715.600,652250.400,710572.600,711039.400,710950.400,711474.600,0.000
339005.100,331679.500,710726.100,652183.700,710582.600,711049.700,710960.800,711484.900,0.000
339418.800,332035.300,710750.400,652671.000,710606.900,711074.200,710985.000,711508.900,0.000
339390.800,332001.100,710743.900,652649.300,710600.700,711067.500,710978.300,711502.200,0.000
338925.600,331597.000,710717.200,651950.900,710574.400,711041.100,710951.900,711475.900,0.000
338895.300,331575.100,710721.900,651738.200,710578.600,711045.500,710956.200,711480.300,0.000
339306.700,331928.700,710748.300,652194.300,710604.400,711071.600,710982.300,711506.500,0.000
339405.300,332002.000,710750.000,652333.800,710606.500,711073.800,710984.300,711508.300,0.000
338948.700,331603.500,710720.000,651668.400,710576.400,711043.600,710954.200,711478.300,0.000
338806.700,331484.700,710715.100,651306.700,710571.800,711038.400,710949.100,711473.800,0.000
339181.100,331807.200,710741.600,651695.900,710597.800,711064.800,710976.100,711500.300,0.000
339387.500,331975.000,710752.300,651972.100,710608.500,711075.600,710986.300,711510.900,0.000
338980.000,331617.800,710727.800,651396.400,710584.400,711051.300,710961.600,711486.200,0.000
338740.900,331415.900,710718.800,650913.600,710575.500,711042.000,710952.600,711477.300,0.000
339058.900,331693.200,710742.900,651208.200,710599.400,711066.100,710976.800,711501.800,0.000
339357.300,331946.900,710757.200,651592.800,710613.700,711080.600,710991.400,711516.100,0.000
339003.800,331637.300,710730.400,651116.800,710587.600,711054.400,710964.900,711489.900,0.000
338683.400,331366.500,710720.100,650534.400,710576.300,711043.300,710953.900,711478.900,0.000
338928.400,331581.900,710739.300,650713.300,710595.600,711062.800,710973.300,711498.000,0.000
339286.900,331884.700,710758.600,651163.500,710614.900,711082.000,710992.400,711517.300,0.000
339045.600,331668.000,710740.400,650852.800,710596.800,711063.600,710974.600,711498.900,0.000
338640.000,331318.400,710721.400,650188.300,710578.200,711044.700,710955.800,711480.000,0.000
338785.500,331447.300,710736.000,650226.500,710592.900,711059.800,710970.400,711494.600,0.000
339191.300,331792.300,710760.300,650716.800,710617.100,711084.100,710994.400,711519.400,0.000
339074.900,331680.900,710748.700,650574.400,710605.000,711071.900,710982.500,711507.600,0.000
338629.200,331293.900,710725.200,649877.600,710581.500,711048.300,710958.400,711483.700,0.000
338678.600,331339.200,710734.900,649777.100,710591.100,711058.000,710968.400,711493.700,0.000
339095.100,331696.600,710760.100,650258.700,710616.500,711083.400,710993.800,711519.200,0.000
339100.700,331693.300,710754.600,650283.200,710611.000,711077.900,710988.400,711513.400,0.000
338631.900,331287.900,710728.300,649589.900,710584.900,711052.000,710962.400,711487.100,0.000
338577.300,331251.000,710733.500,649350.100,710589.500,711057.100,710967.000,711491.900,0.000
338978.600,331597.600,710760.900,649796.200,710617.000,711084.200,710994.600,711519.400,0.000
339099.300,331691.800,710761.600,649970.900,710617.700,711085.200,710995.500,711520.500,0.000
338645.800,331294.300,710732.800,649325.600,710588.800,711056.500,710966.600,711491.600,0.000
338482.500,331158.900,710728.400,648942.400,710584.000,711051.500,710961.900,711486.800,0.000
338843.200,331473.600,710752.800,649312.700,710608.400,711075.600,710986.100,711510.900,0.000
339085.700,331677.100,710764.800,649630.100,710620.900,711087.700,710998.100,711523.200,0.000
338689.100,331329.600,710740.400,649084.600,710596.300,711063.400,710973.600,711498.900,0.000
338418.100,331099.200,710729.200,648575.400,710585.300,711052.500,710962.800,711487.800,0.000
338711.000,331352.500,710750.400,648840.400,710606.400,711073.300,710984.000,711509.200,0.000
339034.100,331622.600,710765.900,649252.100,710622.200,711088.900,710999.800,711524.800,0.000
338723.400,331345.800,710744.400,648839.800,710600.700,711067.500,710978.200,711503.100,0.000
338368.400,331042.700,710729.400,648235.400,710585.100,711052.300,710962.600,711487.400,0.000
338584.800,331234.100,710747.600,648380.100,710603.800,711070.400,710980.900,711506.100,0.000
338963.400,331556.300,710766.800,648847.700,710623.300,711090.100,711000.400,711525.400,0.000
338758.700,331373.800,710750.400,648583.400,710606.900,711074.200,710984.100,711509.000,0.000
338343.700,331020.400,710731.100,647915.300,710587.200,711054.300,710964.300,711489.400,0.000
338463.900,331131.000,710743.300,647920.900,710598.900,711066.100,710976.100,711501.500,0.000
338866.400,331475.100,710764.100,648406.300,710619.800,711086.900,710997.300,711522.500,0.000
338788.900,331401.800,710755.000,648320.100,710611.100,711078.300,710988.600,711513.600,0.000
338329.600,331007.800,710730.900,647624.800,710587.300,711054.200,710964.600,711489.400,0.000
338360.200,331042.800,710742.100,647497.800,710598.600,711065.400,710975.900,711500.800,0.000
338780.500,331405.200,710770.700,647981.300,710626.800,711093.400,711004.200,711529.000,0.000
338830.000,331436.400,710770.600,648057.400,710626.400,711093.200,711004.000,711528.800,0.000
338362.400,331025.900,710742.900,647376.000,710598.300,711065.400,710976.200,711500.700,0.000
338270.100,330949.300,710740.300,647083.800,710595.600,711062.800,710973.100,711498.000,0.000
338667.000,331293.800,710767.400,647515.700,710623.100,711090.000,711000.400,711525.300,0.000
338831.700,331430.400,710774.100,647746.300,710629.500,711097.200,711006.900,711532.100,0.000
338390.700,331041.800,710746.500,647126.300,710601.700,711069.200,710979.000,711504.000,0.000
338188.300,330871.300,710739.100,646703.300,710593.900,711061.300,710971.600,711496.500,0.000
338537.400,331174.600,710761.100,647049.100,710616.400,711083.600,710993.900,711518.800,0.000
338804.200,331395.700,710773.400,647396.700,710629.100,711096.300,711006.700,711531.700,0.000
338431.600,331067.300,710749.600,646886.800,710605.000,711072.100,710982.600,711507.600,0.000
338136.500,330816.200,710734.900,646346.900,710590.500,711057.400,710967.600,711492.400,0.000
338415.200,331059.700,710756.000,646588.700,710611.400,711078.600,710988.800,711513.800,0.000
338762.400,331353.200,710774.900,647031.600,710630.800,711098.100,711008.100,711533.500,0.000
338479.000,331101.200,710755.600,646658.700,710610.700,711078.300,710988.300,711513.400,0.000
338101.800,330779.100,710738.800,646027.700,710593.600,711061.000,710971.600,711495.900,0.000
338295.900,330951.100,710754.100,646137.400,710609.000,711076.300,710986.800,711511.600,0.000
338692.200,331289.000,710777.800,646626.500,710633.400,711100.600,711011.300,711536.400,0.000
338521.000,331133.800,710765.200,646416.800,710620.600,711087.600,710998.300,711523.300,0.000
338091.100,330764.600,710743.900,645738.200,710598.600,711065.700,710976.700,711501.600,0.000
338179.800,330847.700,710755.400,645707.900,710610.400,711077.300,710988.400,711512.900,0.000
338595.000,331204.900,710781.100,646207.000,710635.900,711103.400,711014.200,711538.600,0.000
338548.200,331151.700,710772.900,646159.600,710627.900,711095.100,711006.000,711530.400,0.000
338083.000,330749.300,710747.100,645460.500,710601.700,711068.800,710979.600,711504.200,0.000
338073.200,330748.300,710752.500,645288.400,710607.300,711074.800,710985.000,711509.600,0.000
338478.600,331096.100,710778.000,645752.600,710632.700,711100.100,711010.400,711535.400,0.000
338557.300,331154.400,710776.600,645869.500,710631.600,711099.100,711009.300,711534.500,0.000
338093.900,330753.000,710748.700,645200.100,710603.400,711071.100,710981.600,711506.100,0.000
337970.900,330652.800,710746.300,644876.800,710600.900,711068.500,710978.900,711503.800,0.000
338352.800,330985.300,710772.000,645288.600,710627.400,711094.100,711004.800,711529.600,0.000
338550.600,331148.300,710780.500,645558.800,710635.800,711102.400,711013.100,711537.900,0.000
338127.600,330775.300,710753.100,644967.600,710607.800,711074.800,710985.600,711510.500,0.000
337911.700,330595.100,710747.600,644520.300,710602.600,711069.300,710979.900,711504.900,0.000
338228.200,330871.400,710766.800,644827.800,710622.200,711089.100,710999.600,711524.600,0.000
338515.800,331111.000,710781.500,645203.100,710636.100,711103.400,711013.900,711538.700,0.000
338167.300,330807.300,710760.600,644734.700,710615.000,711082.700,710993.000,711517.800,0.000
337845.800,330536.400,710748.800,644168.300,710603.000,711070.600,710980.900,711505.300,0.000
338089.700,330751.500,710766.900,644370.300,710621.600,711088.900,710999.600,711523.800,0.000
338450.800,331060.100,710788.000,644829.900,710642.400,711110.300,711020.900,711544.900,0.000
338204.300,330841.900,710772.800,644510.100,710627.300,711094.800,711005.600,711529.800,0.000
337813.000,330506.600,710755.000,643863.900,710609.600,711077.000,710987.900,711512.000,0.000
337978.500,330655.300,710770.600,643936.900,710625.100,711092.400,711002.900,711527.700,0.000
338373.300,330994.400,710792.100,644427.200,710646.900,711114.300,711024.800,711549.300,0.000
338232.100,330867.200,710779.900,644261.100,710634.300,711101.600,711012.400,711536.800,0.000
337787.300,330482.500,710759.100,643574.400,710613.800,711080.900,710991.700,711515.900,0.000
337856.800,330549.200,710767.600,643509.400,710622.400,711089.300,711000.000,711524.300,0.000
338268.800,330904.900,710790.600,644000.900,710645.100,711112.600,711023.000,711547.800,0.000
338251.800,330879.900,710784.400,644003.300,710638.800,711105.900,711016.600,711541.300,0.000
337789.500,330478.300,710758.300,643312.200,710612.800,711080.200,710990.600,711515.300,0.000
337751.700,330449.800,710765.200,643096.600,710619.400,711086.800,710997.600,711521.700,0.000
338151.200,330794.800,710788.300,643547.000,710642.600,711109.900,711020.300,711544.800,0.000
338265.200,330887.600,710789.400,643708.200,710643.600,711111.200,711021.800,711545.900,0.000
337814.100,330495.900,710763.100,643063.200,710616.800,711084.700,710995.000,711519.300,0.000
337667.500,330374.800,710760.100,642709.600,710614.500,711082.100,710992.400,711516.600,0.000
338040.100,330698.600,710786.100,643102.600,710640.800,711108.200,711018.700,711542.700,0.000
338264.800,330886.400,710795.700,643407.300,710650.500,711117.500,711028.000,711552.300,0.000
337851.100,330523.200,710768.900,642845.400,710624.100,711090.900,711001.400,711526.100,0.000
337602.700,330312.100,710759.500,642363.000,710613.900,711080.900,710991.900,711516.100,0.000
337911.700,330579.700,710781.700,642654.400,710635.800,711102.600,711014.100,711538.600,0.000
338218.000,330837.800,710796.500,643056.100,710651.200,711118.200,711029.300,711554.100,0.000
337900.900,330561.100,710777.800,642632.000,710632.300,711099.300,711010.300,711534.800,0.000
337560.800,330272.700,710763.300,642049.300,710617.800,711084.800,710995.700,711519.900,0.000
337794.300,330481.600,710783.100,642229.600,710637.700,711104.700,711015.600,711539.900,0.000
338164.800,330797.700,710803.900,642699.900,710658.200,711125.600,711036.200,711560.900,0.000
337937.800,330591.500,710783.200,642410.700,710637.000,711104.600,711015.400,711539.900,0.000
337526.800,330237.100,710762.400,641751.900,710616.300,711083.300,710994.600,711518.800,0.000
337664.800,330362.300,710776.000,641788.400,710630.200,711097.100,711008.100,711532.600,0.000
338079.600,330721.100,710800.600,642293.100,710654.800,711122.100,711032.600,711557.200,0.000
337975.200,330623.000,710790.100,642179.900,710644.600,711111.600,711022.300,711546.900,0.000
337522.300,330229.800,710764.700,641488.800,710619.100,711086.300,710996.900,711521.700,0.000
337560.800,330267.700,710772.100,641381.400,710626.000,711093.200,711004.000,711528.500,0.000
337979.100,330624.900,710798.100,641869.600,710651.800,711119.200,711029.900,711554.400,0.000
338009.500,330640.500,710797.300,641926.100,710651.500,711118.900,711029.300,711554.300,0.000
337542.900,330233.000,710770.100,641243.100,710624.100,711091.400,711002.300,711526.600,0.000
337478.500,330183.200,710772.800,640997.800,710626.800,711094.400,711005.200,711529.400,0.000
337868.800,330520.700,710796.600,641437.500,710650.600,711118.200,711028.700,711553.100,0.000
338001.100,330626.000,710801.900,641638.300,710656.100,711123.400,711034.100,711558.600,0.000
337552.600,330235.300,710774.300,641012.100,710628.100,711095.700,711006.600,711531.000,0.000
337383.700,330100.200,710772.600,640631.300,710626.300,711094.100,711004.800,711529.000,0.000
337741.000,330415.500,710798.400,641004.300,710651.900,711120.000,711030.300,711554.600,0.000
337982.000,330618.800,710809.300,641337.100,710663.000,711130.500,711041.100,711565.900,0.000
337587.400,330275.300,710783.900,640809.600,710637.800,711105.300,711015.600,711540.200,0.000
337310.300,330044.200,710772.600,640296.300,710626.600,711093.900,711004.400,711528.800,0.000
337595.200,330293.500,710792.700,640553.900,710646.500,711113.800,711024.100,711548.800,0.000
337924.300,330570.500,710806.900,640980.100,710661.100,711128.500,711039.100,711563.400,0.000
337625.400,330304.500,710786.900,640586.400,710640.900,711108.300,711019.200,711543.300,0.000
337269.800,330000.500,710771.200,639981.700,710624.800,711092.500,711002.900,711527.300,0.000
337485.000,330193.900,710789.400,640132.700,710643.000,711110.700,711021.300,711545.600,0.000
337867.900,330520.900,710812.300,640619.200,710666.000,711133.300,711044.200,711568.800,0.000
337681.000,330349.600,710797.900,640384.100,710651.700,711118.800,711029.400,711553.900,0.000
337256.000,329983.200,710774.400,639714.200,710628.100,711095.200,711006.000,711530.700,0.000
337373.000,330087.500,710788.600,639721.200,710642.100,711109.400,711019.900,711544.600,0.000
337784.800,330439.800,710811.700,640221.600,710665.400,711132.500,711043.100,711567.600,0.000
337719.100,330376.800,710803.400,640160.100,710657.500,711124.300,711035.100,711559.800,0.000
337260.900,329983.400,710777.800,639469.100,710631.200,711098.300,711009.200,711533.700,0.000
337270.800,329998.100,710783.600,639323.800,710637.400,711104.300,711014.900,711539.500,0.000
337681.000,330347.100,710809.400,639802.900,710663.100,711130.100,711040.400,711565.400,0.000
337738.300,330383.900,710808.200,639897.200,710661.800,711128.600,711039.300,711564.100,0.000
337281.000,329987.500,710783.900,639234.900,710637.000,711104.100,711014.800,711539.800,0.000
337178.800,329903.500,710783.600,638940.200,710637.200,711103.700,711014.800,711539.800,0.000
337563.000,330235.500,710807.300,639362.400,710661.300,711128.000,711039.100,711563.700,0.000
337741.900,330381.900,710813.400,639608.900,710667.100,711133.800,711044.700,711569.400,0.000
337315.300,330009.100,710788.900,639016.000,710642.300,711108.900,711020.100,711544.600,0.000
337106.400,329834.000,710782.200,638591.300,710635.500,711102.300,711013.500,711537.600,0.000
337454.400,330140.800,710806.800,638941.600,710660.000,711127.300,711038.200,711562.600,0.000
337725.400,330367.800,710820.900,639308.000,710674.600,711141.900,711052.300,711577.100,0.000
337360.500,330047.200,710799.100,638825.300,710652.600,711119.700,711030.500,711555.100,0.000
337047.000,329781.900,710783.900,638279.100,710637.300,711104.400,711015.400,711539.900,0.000
337307.300,330012.100,710800.200,638501.800,710653.200,711120.700,711031.400,711555.800,0.000
337657.700,330312.700,710820.900,638956.600,710674.400,711141.500,711052.300,711576.700,0.000
337390.900,330075.800,710803.300,638614.800,710656.700,711123.900,711034.800,711559.300,0.000
337010.300,329749.000,710784.800,637988.200,710638.300,711105.700,711016.400,711540.800,0.000
337200.900,329920.300,710803.600,638100.300,710656.400,711124.000,711034.800,711559.300,0.000
337598.300,330258.200,710825.100,638596.400,710678.500,711145.600,711056.700,711581.100,0.000
337434.800,330102.700,710810.400,638407.100,710663.600,711130.800,711041.800,711566.400,0.000
337000.800,329727.300,710789.400,637731.800,710642.300,711109.700,711020.600,711545.100,0.000
337085.300,329806.200,710797.800,637689.900,710651.100,711118.200,711028.800,711553.400,0.000
337502.500,330160.700,710822.300,638192.300,710675.200,711142.900,711053.600,711578.200,0.000
337475.600,330127.800,710817.900,638180.600,710670.700,711138.500,711049.400,711573.600,0.000
337011.700,329724.800,710790.700,637489.700,710643.600,711110.900,711021.800,711546.600,0.000
336991.100,329709.800,710794.400,637303.500,710647.600,711114.500,711025.400,711550.300,0.000
337403.000,330063.900,710822.300,637779.700,710675.900,711142.500,711053.600,711578.300,0.000
337497.800,330140.700,710823.300,637925.700,710676.300,711143.700,711054.400,711578.800,0.000
337038.500,329743.200,710796.600,637275.600,710649.300,711117.000,711027.600,711551.600,0.000
336907.500,329637.600,710794.700,636947.400,710648.100,711115.400,711026.300,711550.400,0.000
337290.000,329969.500,710819.300,637360.800,710672.500,711139.800,711050.700,711575.500,0.000
337500.100,330142.600,710830.100,637649.600,710683.400,711150.600,711061.600,711586.300,0.000
337087.800,329776.900,710805.200,637081.400,710658.600,711125.500,711036.600,711561.100,0.000
336847.500,329571.700,710794.700,636618.800,710647.900,711114.900,711026.000,711550.500,0.000
337160.700,329848.000,710814.000,636923.800,710667.300,711134.400,711045.300,711569.900,0.000
337464.900,330108.900,710831.000,637326.300,710684.100,711151.200,711062.300,711586.800,0.000
337128.200,329813.000,710810.400,636883.800,710663.400,711130.500,711041.200,711565.900,0.000
336805.600,329540.600,710796.900,636324.100,710650.100,711117.300,711027.900,711552.600,0.000
337048.000,329756.000,710812.900,636523.400,710665.700,711133.200,711043.600,711568.400,0.000
337410.400,330067.300,710831.200,636991.600,710684.400,711151.400,711062.500,711587.100,0.000
337173.300,329856.900,710813.700,636692.500,710666.500,711133.700,711044.700,711569.000,0.000
336777.000,329517.800,710793.600,636050.600,710646.200,711113.600,711024.400,711548.900,0.000
336937.800,329663.800,710809.000,636122.300,710662.100,711129.300,711040.100,711564.600,0.000
337341.800,330008.200,710832.100,636628.700,710685.600,711152.300,711062.900,711587.900,0.000
337220.100,329892.400,710819.700,636495.100,710673.100,711139.900,711050.700,711575.700,0.000
336778.000,329508.000,710795.900,635816.300,710649.100,711116.500,711027.000,711551.600,0.000
336833.100,329559.800,710804.800,635740.700,710657.300,711124.600,711035.600,711559.900,0.000
337253.600,329917.400,710829.100,636239.800,710682.300,711149.200,711060.200,711584.800,0.000
337260.500,329913.200,710825.400,636277.700,710678.800,711145.900,711056.500,711580.800,0.000
336796.900,329512.300,710799.300,635605.600,710652.200,711119.600,711030.300,711554.400,0.000
