EEG 1, EEG 2, EEG 3, EEG 4, EEG 5, EEG 6, EEG 7, EEG 8
519020.8,-553437,69122.15,267809.8,-182102,272767.1,275708.3,-261553
460260.8,-750000.1,-354841,262338.3,-254365.9,458301.6,39979.58,-219508.5
670373.6,-750000.1,-323040.7,479387.8,-346138.2,571491.4,-341423.8,-175273.6
750000.1,-488453.9,612804.4,454846.3,69729.04,586739.3,-160025.2,59131.63
750000.1,50958.76,750000.1,524724.1,415069.2,735145.8,354559.8,346023
750000.1,625818.4,750000.1,750000.1,562261.1,750000.1,543810.2,463415.3
750000.1,674202.5,750000.1,750000.1,724432.4,750000.1,631536.5,570562.2
750000.1,673683.3,681690.8,750000.1,673369.4,750000.1,614816.4,642160.1
750000.1,680624.9,750000.1,750000.1,657814.9,750000.1,589406.1,643387.1
750000.1,750000.1,750000.1,750000.1,691602.6,750000.1,595333,750000.1
750000.1,750000.1,750000.1,750000.1,750000.1,750000.1,750000.1,750000.1
750000.1,750000.1,750000.1,750000.1,750000.1,750000.1,750000.1,750000.1
750000.1,750000.1,750000.1,750000.1,750000.1,750000.1,750000.1,750000.1
750000.1,750000.1,750000.1,750000.1,750000.1,750000.1,750000.1,750000.1
750000.1,750000.1,750000.1,750000.1,750000.1,750000.1,750000.1,750000.1
750000.1,729808.4,750000.1,750000.1,750000.1,750000.1,750000.1,750000.1
750000.1,656272.6,750000.1,750000.1,750000.1,750000.1,750000.1,750000.1
750000.1,626623.9,750000.1,750000.1,750000.1,750000.1,750000.1,750000.1
725748.3,602768.3,750000.1,750000.1,750000.1,750000.1,750000.1,750000.1
696412.4,581746.8,750000.1,750000.1,750000.1,750000.1,750000.1,750000.1
670441.8,563123.7,750000.1,750000.1,750000.1,750000.1,750000.1,750000.1
646522,545775,750000.1,750000.1,750000.1,750000.1,750000.1,750000.1
624066,529283,750000.1,750000.1,750000.1,750000.1,750000.1,750000.1
603954.6,514522.8,750000.1,750000.1,750000.1,750000.1,750000.1,750000.1
586099.7,501448.2,750000.1,750000.1,750000.1,750000.1,750000.1,750000.1
569511.2,489190.2,750000.1,750000.1,750000.1,750000.1,750000.1,750000.1
553531.1,477220.4,750000.1,750000.1,750000.1,750000.1,750000.1,750000.1
539002.3,466344,750000.1,750000.1,750000.1,750000.1,750000.1,750000.1
526143.8,456783.3,750000.1,750000.1,750000.1,750000.1,750000.1,750000.1
514210.1,447864.3,750000.1,750000.1,750000.1,750000.1,750000.1,750000.1
502467,438929.9,750000.1,750000.1,750000.1,750000.1,750000.1,750000.1
491571.8,430635.7,750000.1,750000.1,750000.1,750000.1,750000.1,750000.1
482000.6,423417.6,750000.1,750000.1,750000.1,750000.1,750000.1,750000.1
473175.3,416747.9,750000.1,750000.1,750000.1,750000.1,750000.1,750000.1
464320.8,409937.9,750000.1,750000.1,750000.1,750000.1,750000.1,750000.1
455896.3,403431,750000.1,750000.1,750000.1,750000.1,750000.1,750000.1
448555,397833.7,750000.1,750000.1,750000.1,750000.1,750000.1,750000.1
441876,392753.6,750000.1,750000.1,750000.1,750000.1,750000.1,750000.1
435102.5,387497.9,750000.1,750000.1,750000.1,750000.1,740053.9,750000.1
428468.5,382312.2,750000.1,750000.1,750000.1,750000.1,724603.8,750000.1
422695.9,377867.3,750000.1,750000.1,750000.1,750000.1,710412.8,750000.1
417556.6,373938.7,750000.1,750000.1,750000.1,750000.1,697348.8,750000.1
412325.4,369861.8,750000.1,750000.1,750000.1,750000.1,684574,750000.1
406974,365636.5,750000.1,750000.1,750000.1,750000.1,671905,750000.1
402313.8,362014.2,750000.1,750000.1,750000.1,750000.1,660192,750000.1
398280.8,358916.7,750000.1,750000.1,750000.1,750000.1,649490.3,750000.1
394230.8,355760.4,750000.1,750000.1,750000.1,750000.1,639095.7,750000.1
389894.8,352305.8,750000.1,750000.1,750000.1,750000.1,628589.6,750000.1
386042.1,349275.8,750000.1,750000.1,750000.1,750000.1,618746.6,750000.1
382819.6,346796.8,750000.1,750000.1,750000.1,750000.1,609841.6,750000.1
379654.2,344334.7,750000.1,750000.1,750000.1,750000.1,601271.7,750000.1
376120.7,341512.5,750000.1,750000.1,750000.1,750000.1,592475.8,750000.1
372883.1,338954,750000.1,750000.1,750000.1,750000.1,584084.8,750000.1
370264.5,336937.3,750000.1,750000.1,750000.1,750000.1,576558.6,750000.1
367781.7,335014.6,750000.1,750000.1,750000.1,750000.1,569425.4,750000.1
364895.6,332698.5,750000.1,750000.1,750000.1,750000.1,562010.3,750000.1
362138.7,330498,750000.1,750000.1,750000.1,750000.1,554782.1,750000.1
359986.7,328841.8,750000.1,750000.1,750000.1,750000.1,548348.3,750000.1
358040.9,327349.6,750000.1,750000.1,750000.1,750000.1,542357.7,750000.1
355709.8,325484.3,750000.1,750000.1,750000.1,750000.1,536098.1,750000.1
353346.8,323588.8,750000.1,750000.1,750000.1,750000.1,529830.1,750000.1
351516.5,322172.9,750000.1,750000.1,750000.1,750000.1,524231,750000.1
349967.7,320996,750000.1,750000.1,750000.1,750000.1,519122.1,750000.1
348107.4,319515.8,750000.1,750000.1,750000.1,750000.1,513821.4,750000.1
346055.8,317859.6,750000.1,750000.1,750000.1,750000.1,508335,750000.1
344466.3,316623.3,750000.1,750000.1,750000.1,750000.1,503400.8,750000.1
343243.2,315704.6,750000.1,750000.1,750000.1,750000.1,499007.8,750000.1
341780.9,314552.4,750000.1,750000.1,750000.1,750000.1,494502.8,750000.1
339988.7,313095.3,750000.1,750000.1,750000.1,750000.1,489671.2,750000.1
338592.9,312005.1,750000.1,750000.1,750000.1,750000.1,485280.3,750000.1
337607.1,311281.7,750000.1,750000.1,750000.1,750000.1,481461.6,750000.1
336475.8,310408.8,750000.1,750000.1,750000.1,750000.1,477625.2,750000.1
334937,309154.3,750000.1,750000.1,750000.1,750000.1,473381.5,750000.1
333675,308161.4,749362.6,749423.6,749130.8,749627.2,469426.6,750000.1
332861.4,307573.7,747682.8,747743.9,747451.5,747946.6,466059.3,748388.1
331999.3,306926.7,746070.5,746131.5,745839.7,746333.6,462773.3,746775.1
330649.9,305825.3,744497.2,744558,744267,744760.3,459004.2,745200.9
329517.5,304931.6,743009.5,743070.4,742780.1,743272.3,455426.8,743712.6
328850.6,304457.1,741619,741680.2,741390.5,741881.4,452448,742321.4
328220.5,304007.1,740288.8,740349.6,740060.9,740550.5,449639.2,740990.6
327119.7,303114.5,738980.8,739041.6,738753.4,739242.3,446376.9,739681.9
326014.2,302224.5,737737.3,737798.1,737510.4,737998.5,443068.7,738438
325395.3,301782,736582.3,736643.1,736356,736842.6,440327.1,737282.3
324940.3,301475.8,735482.1,735542.8,735256.8,735742.1,437879.5,736181.3
324072.6,300778.1,734400.8,734461.2,734176.1,734661,435060.1,735099.6
323045.7,299941.4,733358.3,733418.7,733134.1,733618.8,432027.5,734056.8
322478.7,299530.9,732396,732456.9,732172.4,732656.1,429503.4,733094.2
322167.9,299350,731491,731552,731267.6,731750.4,427367,732188.9
321488.2,298816.1,730592.8,730653.4,730369.2,730851.8,424917.7,731289.8
320536.8,298036.3,729721.8,729782.6,729498.7,729980.6,422147.8,730418.5
319984.6,297627.2,728918.6,728979.6,728696.3,729177,419788.4,729615.1
319759.9,297512,728166.3,728227.3,727944.1,728424.7,417876.8,728862.8
319274.8,297148.9,727426.6,727487.7,727204.9,727685.3,415780.4,728123.4
318395.8,296422.8,726695.8,726756.3,726474.1,726953.7,413242.6,727391.6
317834.8,295996.7,726022.9,726083.6,725801.6,726280.6,411012.5,726718.6
317661.1,295922.3,725402.8,725463.4,725182.1,725660.4,409280.9,726098.3
317349,295707.3,724796.4,724857.1,724575.8,725053.9,407492.7,725491.9
316568.5,295059.4,724186.8,724247,723966.1,724444.1,405205.2,724881.6
315990,294606.8,723620.4,723680.8,723400.3,723877.3,403077.3,724314.8
315841.3,294548.8,723104.6,723165,722884.9,723361.5,401470.2,723798.9
315656.5,294447.8,722606.4,722666.9,722386.9,722862.9,399927.1,723300.4
315004.2,293914,722101.8,722162.4,721882.6,722358.3,397896,722795.9
314408.5,293439.6,721624.3,721684.7,721405.2,721880.8,395864.7,722318.2
314266.2,293382.6,721199.4,721260.4,720980.9,721455.8,394358.6,721893.5
314181.2,293367.2,720789,720849.6,720570.5,721045.1,393015.5,721482.7
313632,292918.1,720364.1,720424.3,720145.6,720619.9,391203.7,721057.4
313018.5,292420.7,719960.2,720020.8,719742.2,720216.3,389260.8,720653.7
312853.2,292335.1,719606.3,719667.1,719388.4,719862.2,387809.8,720299.8
312862.4,292400.3,719275.9,719336.8,719058.2,719531.9,386642.4,719969.7
312450.1,292073,718925.9,718986.3,718708.1,719182.3,385076.1,719619.6
311836.1,291566.5,718582.7,718643.3,718365.1,718838.7,383229,719276.5
311644.9,291449.4,718285.9,718346.5,718068.6,718541.6,381821.4,718979.8
311711.7,291569.6,718017.6,718078.1,717800.4,718273.3,380778.6,718710.9
311410.7,291339,717729.6,717789.8,717512.4,717984.9,379417.6,718422.6
310809.6,290835.6,717440.6,717500.9,717224,717696.3,377683.8,718134.1
310567.8,290671.8,717190.2,717250.5,716973.4,717445.7,376294.4,717883.4
310656.7,290807.9,716972.6,717032.8,716755.8,717227.6,375341.8,717665.6
310503.4,290710.5,716743.4,716802.9,716526.8,716998.3,374206.5,717436.4
309939.4,290237.8,716500.4,716559.8,716283.9,716755.1,372599.9,717193.8
309647.4,290022,716289.4,716348.9,716073.2,716544.4,371229.2,716983
309731.9,290147.9,716109.3,716169.3,715893.1,716364.3,370326.8,716802.4
309683.3,290143.4,715922.9,715983,715706.2,716177.6,369365.4,716616
309165.2,289705.1,715714.9,715774.5,715498.5,715969.5,367886.6,716408.3
308806.7,289421.9,715529.3,715589,715313.2,715784.3,366508.5,716222.9
308870.7,289526.5,715379.8,715439.5,715164.1,715634.9,365627.1,716073.7
308922,289613.1,715232.9,715292,715016.8,715487.3,364820.8,715926.5
308488.9,289250.3,715060.5,715119.3,714844.6,715314.8,363504.9,715753.8
308075.2,288913.9,714901.6,714960.4,714686.3,715155.9,362135.8,715595.1
308103.5,288984.6,714776.6,714835.2,714560.6,715030.6,361261.4,715469.8
308229.9,289141.7,714663.6,714721.9,714447.3,714917.4,360577.1,715356.7
307895.2,288866.1,714525.5,714583.9,714309.7,714779.6,359428.7,715218.6
307450.8,288493.6,714386.8,714445.3,714170.8,714640.6,358084.9,715080
307436.5,288523,714282.7,714340.8,714066.9,714536.5,357205.8,714976.3
307607.4,288715.9,714193.7,714251.4,713977.8,714447.4,356614.2,714887.3
307369.3,288524.3,714078.1,714136.1,713862.3,714331.9,355630.8,714771.4
306888,288116.3,713953,714010.7,713736.8,714206.9,354315.1,714646.4
306809.5,288083.7,713862.2,713919.3,713645.8,714115.8,353404,714555.7
307001.7,288291.6,713793,713850.1,713577,714046.3,352862,714486.3
306871.2,288199.5,713699.9,713757.1,713484.2,713953.3,352041.8,714393.3
306404.1,287803.6,713594.9,713652,713379,713848.7,350807.1,714288.4
306256,287708.2,713517.2,713574.1,713301.3,713770.4,349868.8,714210.4
306439.3,287912,713462.3,713519.2,713246.7,713715.8,349351.4,714155.7
306413.2,287915.1,713392.4,713449.2,713176.9,713646.4,348682.8,714085.9
305955,287517.8,713299.1,713355.6,713083.4,713552.6,347517,713992.4
305741.4,287357.1,713230,713286.1,713014.1,713483.4,346544.2,713923.3
305920.9,287556.6,713189.3,713245.4,712973.2,713443.1,346045.6,713882.5
305981.3,287637.6,713135.9,713191.8,712919.8,713389.6,345500.2,713829.2
305563.9,287274.9,713052.9,713109.1,712836.8,713306.4,344431.5,713746.6
305279.3,287043.2,712987.6,713043.4,712771.6,713241.1,343424.5,713681.3
305416.7,287202.1,712952.2,713007.8,712736.6,713205.9,342902,713646
305571.1,287367.6,712917.3,712972.8,712701.8,713170.8,342480.2,713610.6
305236.9,287079.7,712851.3,712906.3,712635.4,713104.6,341546.1,713544.8
304884.9,286784.5,712787.7,712842.7,712572.1,713041.1,340517,713481.7
304967,286891.7,712757.6,712812.6,712542.2,713011.1,339965.3,713451.4
305159.2,287094.1,712731.4,712786.3,712516.3,712984.8,339610,713425.2
304900.9,286875.1,712676.3,712730.8,712460.8,712929.3,338803.5,713370.1
304501.8,286534.1,712620.8,712674.8,712405.1,712873.9,337772,713314.5
304530.7,286590.3,712592.7,712646.8,712377.1,712846.1,337177.3,713286.8
304754.5,286820.1,712575.1,712629.4,712359.4,712828.8,336871.9,713269.6
304609.2,286702.9,712536.3,712589.8,712320.2,712789.1,336214.6,713230.1
304188.8,286338,712480.5,712533.9,712264.6,712733.3,335195.2,713174.1
304153.3,286334.8,712456.8,712510,712241.3,712709.6,334554.2,713150.3
304391.6,286580.8,712449.6,712502.6,712234,712702.5,334286.3,713143.7
304329.9,286542.5,712418.2,712471,712202.1,712670.6,333756.4,713112.3
303902.3,286165.6,712365.5,712418,712149.3,712618,332775.1,713059.7
303789.6,286087.2,712341.2,712393.1,712125.2,712594.1,332077,713035.6
304023.9,286327,712339.9,712392.7,712124.8,712593.1,331814.2,713035.1
304053.1,286365.6,712316.4,712368.8,712101.1,712569.6,331401.2,713011.1
303649.4,286009.3,712269.3,712321.3,712053.9,712522.7,330487.3,712964.1
303460.9,285861.8,712243.2,712295.1,712028,712496.7,329736.2,712938.1
303665.3,286072.8,712242.2,712293.7,712026.8,712495.3,329453.9,712936.9
303783.1,286197.8,712230.1,712280.8,712015.1,712484,329158.6,712925.4
303423.9,285879.6,712189.1,712237.9,711974.9,712443.8,328335.3,712885.1
303150.7,285650.5,712156.4,712203.8,711943,712411.8,327526.5,712853.3
303311.2,285825.1,712156.6,712202.7,711943.6,712411.9,327212.5,712854
303499.9,286017,712154.3,712199.6,711941.6,712410.1,327006.8,712852
303212.1,285766.3,712120.4,712164,711908.6,712376.9,326299.2,712819.2
302888.9,285489.3,712089.8,712131.2,711879.1,712347.7,325463.2,712789.5
302994.4,285606.7,712087.8,712127.9,711878.1,712346.3,325087.6,712788.1
303230.6,285836.6,712092.3,712131.2,711882.8,712350.9,324938,712792.5
303036.6,285669,712067.7,712104.8,711858.7,712327.1,324357.2,712768.8
302659.2,285341.8,712034.1,712069.2,711825.9,712294.5,323502.5,712736.2
302688.7,285391.8,712027,712061,711819.4,712287.8,323065.6,712729.7
302934.2,285637.1,712032.1,712064.8,711824.3,712293.2,322939.5,712734.9
302838.7,285560.3,712017.3,712048.9,711810.2,712279.3,322489.7,712721
302438.2,285203.8,711984.1,712013.3,711778.6,712246.8,321649.3,712688.9
302388.9,285180.7,711975,712002.8,711770.6,712238.6,321143.4,712680.5
302646.4,285436.2,711985.5,712012.4,711781.3,712249.6,321035.1,712691.5
302636,285436.5,711975.8,712001.3,711772.2,712240.3,320702.5,712682.6
302236.6,285080.6,711940.9,711964.4,711738.6,712206.8,319893,712648.7
302128.3,285004.3,711931.2,711952.6,711729.3,712197.9,319337.9,712639.8
302380.5,285254.4,711945,711965.1,711743.4,712211.6,319220.3,712653.9
302463.4,285340.7,711943.4,711962.4,711742.3,712210.6,318995.9,712652.7
302072.9,284990,711910.2,711927.3,711710.1,712178.3,318238.2,712620.1
301872,284824.6,711893.1,711907.9,711694,712162,317605.4,712603.9
302088.4,285044,711902.6,711916.4,711703.8,712172.1,317457.2,712614
302247.1,285203,711907.1,711919.8,711708.6,712176.9,317323.3,712618.9
301925.8,284919.5,711880.8,711890.7,711683.1,712151.2,316667.5,712593.7
301661.2,284692.3,711861,711868.6,711664.6,712132.4,315988.1,712574.9
301824.2,284860.8,711872.2,711878.6,711676.2,712144.5,315788.5,712586.5
302031,285060.8,711883.2,711888.5,711687.3,712155.5,315719.6,712597.5
301772.1,284828.2,711859.8,711862.9,711665,712132.9,315159,712574.9
301454.7,284551.9,711838.2,711838.2,711644.7,712112.6,314443.7,712554.1
301566.9,284673.8,711846.7,711845.4,711653.6,712121.5,314187.1,712563
301820.3,284918.4,711858.8,711857.3,711665.6,712133.7,314162.1,712575.6
301644.2,284759.4,711840.9,711837.2,711648.4,712116.7,313710.7,712558.4
301273.3,284430.1,711815.8,711809.1,711624.4,712092.6,312971.2,712534.8
301309,284484.4,711819.1,711810.6,711628.4,712096.8,312635.8,712538.7
301571,284743.5,711832.8,711823.3,711642.6,712110.8,312625.9,712552.1
301498.7,284686.4,711822.8,711811.1,711632.8,712101.1,312305.4,712542.9
301108.9,284335.3,711795.2,711780.5,711606,712074.3,311578.1,712515.9
301058.7,284304.3,711792.9,711775.9,711604.8,712073.3,311164.7,712514.4
301321.9,284563.8,711812.4,711794.4,711624.7,712092.9,311155.3,712534.5
301343.6,284593,711809.5,711790,711622.2,712090.3,310946.8,712532
300960.8,284249.5,711782.1,711758.6,711595.6,712063.9,310256.2,712505.5
300840.5,284157.7,711778,711752.3,711592.8,712060.6,309785.8,712502.4
301081.9,284395.9,711792.6,711766.1,711608.1,712076.1,309750.3,712517.1
301195.6,284510.6,711798.1,711769.5,711613.3,712081.8,309646.7,712522.9
300839.6,284187.1,711770.9,711738.9,711587.5,712055.4,309010.1,712496.9
300639.4,284016.9,711762.6,711726,711579.8,712047.5,308463.1,712489
300851.8,284228.9,711777.6,711739.2,711595,712062.6,308392,712504.2
301031.8,284403.3,711784.8,711744.9,711602.1,712069.8,308362.8,712511.4
300736.6,284135.7,711763.3,711719,711581.9,712049.4,307818.7,712490.6
300465.1,283901.8,711747.5,711697.3,711567.2,712034.6,307216.1,712475.7
300621.3,284062.8,711761.1,711707.6,711581.1,712048.6,307089.4,712489.9
300858.4,284290.2,711775.3,711719.2,711595.4,712063.1,307121.3,712504
300641.2,284092.2,711757.8,711689.5,711578.8,712046.5,306679.4,712487.3
300304.9,283793.8,711731.6,711532.9,711557.4,712024.6,306028.4,712465.1
300410.4,283907.8,711730.4,711211.9,711566.5,712034,305838.8,712473.9
300676.7,284162,711745.1,710981.1,711584.3,712051.8,305908,712491.2
300541.1,284038.7,711731.1,710171.6,711572.1,712039.7,305572.3,712479.1
300174.8,283708.2,711704.9,708757.3,711548.3,712016.1,304908.6,712455
300196.2,283742.3,711712.1,707887.8,711556.6,712024.6,304636,712463.4
300481.3,284019,711733.3,707608.5,711577.9,712046.4,304714.3,712485.1
300445.9,283990.9,711728.7,706858.1,711574.4,712042.8,304502.8,712481.6
300062.6,283641.9,711700.3,705393.2,711548.4,712016.3,303850.7,712455
300011.2,283608.7,711701.3,704432.9,711550.8,712018.6,303501.9,712456.8
300278.7,283868.7,711719.2,704146.4,711568.9,712037,303556.9,712475
300329.9,283922.4,711719.4,703612.6,711569.4,712037,303442.5,712475.7
299956,283583.3,711693.3,702308.9,711544.5,712012,302827.5,712450.4
299822.4,283473.5,711687.4,701287.6,711539.9,712007.5,302400,712445.4
300065.4,283709.7,711705.3,700971.8,711558.3,712025.8,302426.1,712463.9
300199.6,283837.5,711712.8,700596.8,711566.2,712033.6,302407.8,712471.8
299864,283530,711688.2,699425.8,711542.9,712010.2,301856.3,712448.3
299659.4,283355.3,711679.7,698331.8,711535.2,712002.9,301366.9,712440.3
299865.7,283558.1,711698.7,697955.2,711554.3,712021.9,301347.8,712459
300072.2,283755.4,711711.4,697700.1,711567,712034.9,301403.4,712472.1
299800.4,283507.7,711691.9,696676.4,711548.1,712016.3,300945,712453.6
299519.3,283259.8,711674.2,695497.9,711531.3,711999.3,300393,712436.3
299673.3,283414.9,711688.1,695030.2,711545.1,712013,300311.3,712450.1
299919.8,283647.8,711704.3,694847.2,711561.8,712029.9,300408.2,712466.6
299717.7,283464.1,711688.9,693980.4,711546.9,712014.9,300042.7,712451.3
299389.7,283171.2,711669.5,692761.8,711527.9,711996.2,299453.6,712431.3
299485.9,283275.4,711680.6,692193.3,711539.8,712007.3,299304.1,712441.3
299771.9,283549.9,711702.6,692062.1,711561.6,712029.7,299444.5,712462.4
299658.8,283447.8,711694,691365.9,711553,712021,299195.5,712452.6
299283.2,283109.1,711670.2,690126.3,711529.9,711997.5,298583.2,712427.1
299287.7,283128.5,711671.9,689428.3,711531.9,711999.9,298336.3,712427.6
299574.5,283406.4,711692.2,689293.5,711552.5,712020.8,298462.9,712446.8
299570,283402.3,711692.4,688774.3,711553.1,712020.9,298331.3,712446.1
299189.4,283054.1,711668.9,687570.3,711530.2,711997.6,297741.3,712421.4
299122.9,283002.8,711668.8,686768.9,711529.9,711997.9,297424.1,712419.7
299404.7,283271.2,711688.1,686613.4,711549.4,712017.2,297533.4,712437.4
299488,283348.9,711693.1,686250.6,711554.7,712022.2,297500.8,712441.1
299123,283015.9,711661.9,685111.1,711530.2,711997.6,296949.5,712414.3
298967.3,282885.6,711654.4,684230.3,711522.5,711990.4,296543.1,712404.8
299211.3,283122.9,711675.4,684237.6,711541.1,712009.4,296605.4,712421.9
299358.6,283262,711676,684245.7,711546.2,712014.8,296642.4,712425.3
299032,282960.6,711661.7,683446,711523.8,711992.1,296149.6,712401.6
298799.3,282757.5,711650.6,682642.9,711511.6,711979.9,295673.4,712387.4
298991.6,282946.6,711665.8,682546.7,711527.3,711995.2,295675.3,712401.2
299201.8,283144,711676.1,682598.3,711537.9,712005.9,295776.7,712410.1
298943.5,282905.1,711657.7,681892.2,711519.6,711987.6,295376,712389.4
298657.1,282651.9,711643.3,680982.3,711505.3,711973.2,294855,712372.8
298793.3,282791.9,711656.9,680755.4,711518.9,711986.5,294796.1,712384.6
299053.5,283036,711674.5,680840.5,711536.4,712004.5,294945.4,712401.2
298883.6,282879,711659.8,680265,711522.1,711990.6,294653.1,712384.4
298544.9,282573.3,711638.4,679278.3,711500.7,711969,294092.7,712360.5
298616.5,282649.8,711646.9,678908.9,711509,711977.5,293951.8,712367.1
298898.7,282916.3,711665.9,678994.1,711528.2,711996.5,294114.6,712384.4
298815,282836,711659.4,678558.4,711521.9,711990,293928.4,712375.9
298451.3,282503.7,711635.9,677543.2,711498.4,711966.2,293361.7,712349.5
298454.4,282519.3,711642.8,677042.9,711505.4,711972.8,293151.1,712353.8
298747.9,282797.8,711664.8,677110.3,711527.5,711995.1,293319,712374.2
298755.8,282805.6,711661.1,676813.7,711523.6,711991.7,293235.7,712368.8
298375.2,282458.7,711635.8,675805.1,711498.4,711966.5,292677.4,712340.9
298300.7,282404.9,711636.1,675167.2,711498.4,711966.4,292384.5,712338.1
298567.7,282659.2,711654.6,675172.8,711516.6,711984.8,292516.8,712354.6
298668.2,282751.8,711661.3,675019.9,711523.8,711991.9,292540.2,712359.9
298316.8,282428.3,711640.3,674084.6,711502.6,711970.9,292038.9,712335.8
298157.2,282291.5,711634.9,673315.9,711497.6,711965.9,291662.6,712327.8
298406.4,282528.8,711656.5,673253.6,711518.9,711987.1,291760.1,712346.9
298593.5,282702.7,711667.8,673209.1,711530.2,711997.9,291863.7,712355.8
298294.8,282427.1,711648.2,672375.8,711510.9,711978.9,291436.6,712333.9
298055,282215.2,711636.2,671497.2,711498.7,711966.8,290991,712318.5
298238,282396.9,711650.7,671327.9,711513.2,711980.7,291016.5,712330.3
298477.4,282621.5,711665.9,671357.1,711528.1,711995.8,291173.3,712343.4
298246.9,282405.3,711651.1,670651.3,711513.2,711980.8,290835.6,712325.1
297946.7,282133.2,711634.3,669691.4,711496.4,711964.3,290335.6,712304.4
298082.1,282269.8,711648.6,669415.4,711510.3,711978.6,290298.5,712315.8
298355,282524.7,711666,669486.3,711528.1,711996.2,290486,712331.3
298206.5,282384.2,711653.9,668928.4,711516.1,711983.9,290248.2,712315.9
297863.2,282067.3,711631.8,667918.8,711493.6,711961.5,289712.9,712289.7
297932.5,282141.1,711642.8,667522.2,711504.6,711972.5,289598.3,712297.3
298226.7,282416.8,711667.3,667616.5,711529.1,711997.3,289808.7,712318.9
298181.1,282372.7,711662.5,667233.3,711524.9,711992.8,289692.3,712310.7
297820.7,282044.5,711640.4,666229.9,711502.6,711970.5,289163.6,712283.3
297785.3,282019.9,711638,665677.2,711500.1,711968.1,288937.3,712276
298075.3,282293.1,711657.8,665737.2,711519.4,711987.8,289127.7,712290.9
298116.8,282333,711659.3,665495.9,711520.9,711989.3,289112.4,712286.3
297756.6,282003.6,711641.6,664529.3,711502.8,711971.1,288609.5,712254.8
297657.4,281923.6,711640.3,663869.6,711501.6,711970,288320.8,712172.5
297931.3,282184.9,711661.2,663882.4,711522.7,711991,288481.7,711790.4
298060.3,282303.8,711668.1,663776.1,711530.2,711998.4,288555.1,711027.9
297725.8,281998.5,711645.9,662884.1,711507.4,711976.1,288096.8,709721.3
297555.5,281852.4,711642.3,662121.6,711504,711972.5,287739.4,708384.3
297785.5,282070.5,711662.1,662057.9,711524.2,711992.4,287843.9,707450.8
297974.8,282245.6,711672.4,662050.6,711534.6,712003.1,287981.7,706584.6
297683.6,281973.3,711649.4,661258,711511.6,711979.8,287588.7,705282.9
297437.3,281755.2,711639.1,660392.7,711501.1,711969.1,287163,703969.9
297623.1,281939.7,711656.1,660234.6,711518.3,711986.7,287214.8,703084.5
297878.9,282182.4,711672,660311.6,711533.8,712002,287420.6,702354.3
297655.9,281973.4,711652.9,659659.1,711514.7,711982.4,287123.8,701224.4
297349.6,281695.6,711638.6,658719.7,711500.1,711967.8,286645,699940.7
297477,281821.9,711653.9,658450.9,711515.3,711983.6,286623.1,699029.6
297759,282085.6,711670.8,658558.3,711532.3,712000.6,286843.3,698330.7
297637.9,281969.6,711661.9,658070.8,711523.6,711991.7,286656.4,697312.9
297298.7,281658.3,711644,657101.6,711505.6,711973.4,286155.1,696032.6
297360.9,281726.7,711656.1,656712.9,711517.2,711985.1,286053.1,695066.6
297656.7,282003.6,711678.6,656830.7,711539.6,712007.5,286281.3,694382.8
297623.5,281970.8,711673.9,656504.2,711535.2,712002.9,286201.6,693463.4
297253,281629.5,711649.3,655529.8,711510.8,711978.6,285688,692183.6
297224.1,281612.3,711652.9,655002.8,711514.2,711981.7,285488.9,691145.1
297509.6,281882.2,711673.7,655087.3,711534.6,712002.5,285696.5,690446.8
297568,281934.2,711673.5,654905.6,711534.6,712002.7,285715.5,689611.6
297214.1,281607.7,711651.8,653982.7,711512.6,711980.2,285235.8,688375.1
297101.5,281511.1,711647.7,653329.9,711508.6,711976.8,284947.5,687215.9
297361.5,281756.8,711669.6,653355.9,711529.9,711998.1,285105.6,686296.5
297501.1,281885.6,711676.6,653300.1,711536.4,712004.7,285196.1,685709.6
297168.5,281578,711653.1,652453.6,711513.2,711980.9,284749.4,684792.5
296984.1,281418,711647.2,651693.6,711507.2,711975.1,284380.4,683921.4
297208.2,281632.8,711666.6,651640.1,711526.8,711995,284482.3,683430.6
297409,281818.1,711674.7,651678.8,711534.8,712003.1,284636.4,682993
297139.1,281566.4,711656.6,650957.1,711516.6,711984.8,284278.5,682144.7
296888.8,281343.8,711645.5,650113.3,711505.3,711973.2,283852.1,681226.1
297056.2,281508.8,711661.1,649955.1,711520.8,711988.8,283882.9,680674.7
297308.3,281744.6,711675,650064.7,711534.6,712002.7,284085,680272
297112.9,281561.6,711658.5,649489.1,711518.1,711986,283821.1,679499.7
296797,281276.5,711640.5,648568.2,711499.9,711967.8,283338.1,678535.3
296901.2,281386.8,711653,648300.4,711512.6,711980.3,283299.9,677923
297209.3,281675.6,711679.3,648470.1,711539.1,712007.1,283554.3,677564.4
297105.6,281574.7,711669,648055.6,711528.1,711996.6,283400.4,676882.8
296753,281252.4,711647.2,647116.4,711506.1,711974.3,282899.6,675905.9
296790.6,281299.9,711656.1,646731.6,711514.6,711982.9,282780.3,675230.1
297082.9,281574.5,711676.2,646874.1,711534.6,712003.1,283009.6,674845.6
297059.6,281545.2,711667.1,646602,711525.6,711993.8,282950.3,674233.3
296698.7,281213,711646.1,645679.9,711504.6,711972.8,282460,673272.1
296657.7,281185.9,711651.7,645166.9,711510.5,711978.3,282258.1,672530.8
296944.6,281454.9,711673.1,645272.4,711531.9,712000,282466.5,672128.3
297031.1,281530,711676.3,645161.9,711534.6,712003.1,282522.1,671615.7
296683.9,281206.1,711655.4,644291.8,711513.4,711981.8,282066.3,670688.4
296553.9,281092.8,711651.8,643643.4,711510.3,711978,281769,669870.9
296816.3,281339.8,711672.3,643688.9,711530.8,711999.3,281938.1,669435.6
296975.5,281480.1,711681.6,643695.3,711539.9,712008.5,282075.4,668985.9
296664.4,281190.2,711661.1,642918.4,711519.6,711987.9,281680.2,668109.9
296463.4,281014.2,711652.1,642174.4,711510.1,711978.4,281317.2,667245
296681.3,281225.5,711668.4,642136.3,711526.6,711994.8,281430.2,666763.9
296911.1,281436.4,711682.1,642236.1,711539.9,712008.4,281631.9,666366.4
296665.1,281201.4,711664.1,641584.9,711521.6,711990.1,281320.3,665559.7
296391.2,280956.1,711650.3,640746.3,711507.8,711976.1,280894.1,664645.6
296555.9,281116.8,711665.8,640602.6,711523.3,711991.8,280941.7,664111.6
296836.1,281376.7,711684.3,640766.5,711541.3,712009.9,281191.3,663755.8
296663.1,281214.4,711671.4,640265.2,711528.5,711996.9,280979.8,663037.2
296333.4,280914.3,711653.8,639373.9,711510.7,711979.4,280512.7,662096.6
296426.5,281010.7,711664.8,639110.4,711521.7,711990.6,280476.1,661499.4
296724.7,281288.8,711683.9,639294.3,711541.4,712010,280736,661152.6
296650.9,281217,711678.8,638953.2,711535.8,712003.9,280634.5,660522.1
296289.3,280885,711656.3,638041.4,711513,711981.6,280148.6,659572.8
296297.3,280901,711660.3,637642.8,711517.2,711985.5,280015.8,658897.6
296607.3,281190.9,711684.4,637824.3,711541,712009.6,280273.4,658551.2
296638.3,281216.7,711686.4,637652.1,711542.7,712011.4,280285.6,658020
296302.1,280907.6,711668.9,636789,711524.9,711993.2,279832.6,657111.8
296196.5,280816,711660.7,636235.1,711516.5,711985.2,279583.7,656343.2
296462.5,281062.8,711678.9,636348.9,711535.1,712003.8,279792.7,655953.4
296583.4,281170.6,711686.4,636308.9,711542.9,712011.2,279897.6,655500
296250.6,280863.9,711667.3,635495.5,711523.5,711991.7,279475.9,654620.1
296090.8,280725.7,711660,634843.1,711515.7,711984.3,279167.5,653807.7
296349.5,280969.8,711679.8,634904.4,711535.4,712003.9,279346.1,653392.6
296546.7,281148.8,711693,634983.9,711548.4,712016.8,279535.5,653006.4
296238.2,280859.2,711672.3,634254,711527.7,711995.8,279159.8,652164.4
296020.3,280667.8,711666.3,633520.1,711521.6,711989.8,278796.8,651322
296224.8,280866.3,711684.9,633484.9,711539.9,712008.6,278905.8,650859.4
296470.1,281090.9,711701.8,633637.9,711556.8,712025.5,279140.8,650511.4
296241.1,280874.5,711685.5,633053.8,711540.8,712009.5,278868.7,649759.5
295947,280608.8,711666.5,632226.6,711521.8,711990.1,278433.8,648859.4
296098.1,280757.3,711681.2,632088.5,711536.4,712004.7,278474.2,648339
296379.1,281017.8,711699.6,632285.8,711555.4,712022.9,278734,648010
296241.7,280886.3,711691.6,631858.2,711547,712015.1,278564.7,647346.9
295901.4,280573.3,711669.6,630981.4,711525,711993.1,278094.7,646423.8
295979.9,280656.2,711681.6,630720.8,711536.4,712004.3,278052.6,645839.9
296289.5,280945.4,711704,630939.2,711559.3,712027.1,278333.2,645526.2
296228.1,280881.3,711693.5,630649.9,711548.8,712016.6,278254.8,644932.5
295866.8,280548.6,711671.2,629771.1,711526.1,711993.8,277779.6,644012.4
295875.1,280568.3,711681.3,629392.2,711535.6,712003.5,277661.2,643370.8
296171.6,280849.5,711700.3,629581,711554.8,712022.6,277920.8,643037.8
296218.6,280892.2,711702.1,629462.6,711556.8,712024.5,277966.9,642549.8
295851.6,280551.6,711677.4,628612.1,711532.1,712000.2,277509.3,641650.4
295770.2,280485.9,711678.5,628098.4,711532.8,712001.1,277294.5,640932.3
296059.7,280759.9,711703,628250,711556.9,712025.3,277532.4,640584.4
296201.8,280889.9,711712.9,628277.6,711567,712034.8,277679.3,640180.8
295868.8,280578.1,711692,627509.6,711546,712013.9,277276.3,639333.9
295692.8,280421.2,711682.8,626862.1,711536.7,712004.5,276963.5,638538.6
295941.2,280657.7,711700.7,626931.3,711554.3,712022.6,277140.5,638144.5
296141.1,280839.7,711712.8,627049.7,711566.4,712034.8,277343.8,637787.7
295861,280573.3,711695.1,626391.4,711548.5,712016.9,277011.5,637005.4
295636.3,280371,711686.4,625667.8,711539.8,712008,276646.4,636181.1
295816.4,280545.5,711700.5,625626.5,711553.9,712021.8,276740.8,635720.1
296080.5,280792.6,711719.4,625827.5,711572.6,712040.6,277002.6,635411.3
295881.3,280607.2,711707.2,625318.3,711560.1,712028.6,276774.4,634719.9
295570.3,280325.4,711686.8,624501.6,711539.8,712007.8,276338.9,633844.6
295692,280447.6,711699.8,624354.5,711553.1,712021,276365.6,633334.6
295980.1,280717.8,711719.2,624581.8,711572.4,712040.1,276641.2,633038.6
295861.4,280601.8,711709.9,624216.2,711562.8,712030.9,276507.7,632426
295528.2,280295.7,711692.4,623378.6,711545.1,712013.3,276061.1,631551.3
295587.2,280360.3,711704.1,623116.4,711556.4,712024.8,276011.4,630983.3
295890.3,280642.5,711724.9,623353.6,711577.2,712045.6,276291.5,630691.3
295838.2,280584.5,711711.5,623111.1,711563.7,712031.8,276230.6,630131.4
295479,280252.3,711687.9,622264.8,711539.8,712007.9,275772.5,629250.8
295465.6,280251,711695.3,621875.7,711547.2,712015.4,275638.9,628618.5
295767.1,280533.9,711716.9,622086.3,711569,712037,275904.8,628316.9
295829.5,280586.3,711720.2,622023,711572.1,712040.4,275976.8,627873.9
295476,280258.4,711697.8,621223.3,711549.9,712018.5,275545.3,627024.5
295369.7,280170,711695.1,620695.4,711546.9,712015.3,275309.2,626314.1
295663.6,280446.7,711718.9,620861.6,711570.9,712039.3,275549.9,625995.6
295819.4,280587.6,711727.9,620933.6,711580,712048,275718,625631.9
295496.3,280287.1,711705.7,620208.8,711557.6,712025.9,275334.3,624822.1
295297.5,280112.6,711695.3,619555.2,711547.1,712015.2,275006.8,624039.8
295528.9,280333.8,711715.8,619623.4,711567.8,712035.5,275175.4,623662.8
295759.6,280545.3,711733.6,619797.9,711585.8,712053.6,275414.9,623359.7
295493.8,280292.9,711712.9,619190.6,711564.6,712032.6,275112,622621.2
295235.6,280056.1,711697.3,618455.4,711548.9,712016.8,274729.7,621803.3
295426.7,280240.7,711717.2,618433.8,711568.8,712037,274841.2,621383.9
295689.6,280485.3,711733.1,618654.4,711584.7,712052.9,275107.6,621098.5
295515.4,280318.3,711723.2,618202,711574.4,712042.8,274911.6,620456.1
295210,280040.2,711707.6,617409.4,711558.7,712026.8,274486.1,619614.5
295326.9,280156.2,711719.4,617261.9,711570.9,712038.9,274507.3,619124.2
295629.6,280436.1,711742.5,617525.6,711593.7,712061.5,274806.1,618871.8
295532.8,280340.8,711737,617222.1,711588.5,712056.3,274708.1,618309.9
295160.1,279995.5,711706.3,616367.4,711557,712025.5,274229.3,617423
295196.8,280036.4,711710.8,616082.4,711561.5,712030.1,274153.8,616853.6
295526,280344.4,711739.8,616358.7,711590.5,712058.7,274465.9,616615.6
295518.3,280333.4,711736.4,616205.7,711586.3,712055,274470.4,616137.8
295154.3,279995.8,711714.4,615389.7,711564.3,712032.9,274023,615288.8
295118.8,279970.7,711718.8,614994.3,711569.3,712037.5,273874.7,614669.3
295413.8,280247.3,711740.6,615213.8,711591.3,712059.4,274139.6,614385.1
295490.7,280313.1,711740.3,615191.8,711591.3,712059.4,274228.8,613974
295141.6,279987.3,711716.9,614421.1,711567.6,712035.3,273807.2,613155.1
295013.5,279877.2,711710.1,613882.6,711560.3,712028.1,273552.4,612451
295291.4,280142.8,711734.2,614049.6,711584.4,712052.3,273783,612144.4
295458.2,280294.4,711744.5,614157.7,711594.8,712062.4,273967.4,611811.6
295146.5,279999.4,711723.4,613479.1,711573.3,712040.7,273608.3,611046.6
294956.5,279826.3,711713.8,612847.9,711563.8,712031.5,273292,610301.6
295189,280046.6,711735.1,612926.4,711585,712053.1,273462.3,609949.2
295430.4,280270.5,711753.9,613141.8,711603.9,712071.7,273725.1,609683.8
295191.7,280046.6,711740.4,612600.4,711589.9,712057.9,273462.4,609002.6
294910.4,279788.1,711721.1,611854.8,711570.1,712038.3,273057.3,608187.9
295077.4,279947.5,711738.3,611819.1,711587.5,712055.4,273148,607773.1
295355.4,280205.9,711760.3,612079.2,711609.6,712077.5,273439,607531.2
295192.6,280046.7,711746.6,611672.5,711595.8,712063.8,273264.8,606927.3
294859.7,279742.6,711722.8,610873.2,711572.1,712040.1,272822.5,606091.8
294962.6,279849.8,711734.9,610718.2,711584.3,712051.9,272832,605612.6
295276.7,280141.9,711758.1,611008.2,711607.4,712075,273144.4,605388.7
295207.1,280073,711752.6,610762.2,711601.8,712069.8,273082.7,604877.1
294854.8,279748.1,711729.4,609950.4,711578.8,712046.5,272633.3,604043.3
294879.5,279780.1,711737,609665.9,711585.9,712053.5,272551.4,603493.3
295176.6,280058.9,711758.8,609930.3,711607.2,712075.1,272842.4,603251.3
295191.9,280068.3,711756,609828.5,711604.6,712072.9,272877.6,602818.6
294834.5,279736.9,711733.6,609037.8,711582.2,712050,272443.5,602005.3
294787.8,279705.4,711738.3,608635,711586.8,712054.6,272286.2,601403.4
295090.8,279989.8,711762.8,608875.9,711611.7,712079.5,272563.5,601157.7
295181.1,280067.7,711762.8,608898.8,711611.9,712079.5,272673.1,600787.2
294829,279735.7,711736.8,608153.7,711585.7,712053.2,272260.6,599996.3
294699.2,279622.2,711733.3,607619.5,711582.1,712049.3,272007.8,599319.1
294969.8,279879.7,711756.1,607788.6,711605,712072.4,272235.1,599033.6
295151.1,280044.7,711765.9,607940.9,711614.4,712082,272441.3,598741.9
294847.1,279756.3,711742.3,607303.1,711590.7,712058.3,272102,598015.4
294634.2,279562.2,711731.3,606658.6,711579.5,712047.3,271770.2,597279.3
294844.9,279759.7,711747.2,606717.2,711595.2,712063.1,271915.8,596925.6
295102.3,279996.7,711766.1,606968.3,711614.4,712082,272191,596694.4
294879.2,279785.2,711749.9,606478.3,711597.9,712065.8,271951.4,596056.5
294608.3,279538.4,711737.3,605766.4,711585,712052.9,271570.8,595290.1
294766.9,279694,711754.1,605726.1,711601.7,712069.5,271650.5,594887.9
295054.5,279963.6,711774.5,606018.3,711622.4,712089.9,271953.5,594681
294910,279826,711762.1,605666.8,711609.9,712077.3,271808.2,594123.1
294578.7,279518.9,711742.1,604889.3,711589.9,712057.1,271375.8,593318.6
294662.4,279605.1,711751.9,604728.7,711599.9,712067,271370.2,592849.3
294948.7,279873.2,711767.3,605015.4,711615.1,712082.3,271661,592625.8
294908.8,279832.2,711767.3,604838.1,711614.6,712081.9,271639.3,592173.1
294553.9,279502.1,711746.3,604053.5,711593.3,712060.8,271198.8,591373.4
294556.5,279513.8,711750.9,603754.6,711598.2,712065.6,271098.3,590832.1
294870,279810.2,711774.3,604041.4,711621.8,712089,271398.3,590623.8
294916.1,279845.5,711775.6,603999.7,711622.8,712090.3,271467.9,590241.2
294550.4,279502.1,711750,603231.5,711597.3,712064.6,271036.3,589449.9
294482.8,279448.8,711749.7,602812.2,711597.3,712064.4,270856.2,588851.6
294757.1,279708.8,711767.6,603032.1,711614.9,712082.1,271104.7,588599.4
294895,279834.6,711777.8,603131.8,711624.8,712092,271273.8,588300.3
294563.4,279523.6,711756.8,602440.4,711603.5,712070.6,270895,587559.1
294410.6,279386,711752.7,601895.9,711599.4,712066.7,270628.1,586895.3
294663.4,279623.3,711774.9,602054.8,711621.6,712088.9,270839.6,586618.1
294866.3,279808.8,711786.8,602253.8,711633.6,712100.9,271072,586368.3
294587.2,279547.3,711765.3,601675.6,711612,712079.1,270765.5,585691.9
294360.4,279347.1,711756.9,601033.9,711603.5,712070.2,270427.9,584975.1
294538.3,279520.8,711769.9,601075.6,711616.4,712083.6,270551.5,584623.9
294791.4,279756.9,711787.1,601343.7,711633.6,712101.3,270831.1,584415.4
294581.8,279555.8,711771.1,600890.8,711617.7,712084.9,270609.7,583813.1
294297.3,279294.5,711757,600173.1,711602.9,712070.4,270217.3,583058.4
294433.4,279429.3,711771.4,600114.1,711617.7,712085.1,270276.3,582659.6
294717.9,279694.2,711787.9,600411.1,711634.3,712101.9,270574,582463.3
294609.3,279588.9,711778.8,600118.8,711624.4,712092.3,270468,581956.5
294284.8,279290.5,711763.1,599366.4,711608.4,712075.9,270053.4,581194.4
294350.4,279356.1,711772.4,599182.5,711618.3,712085.1,270026.8,580732.5
294646.2,279628,711788.4,599481.6,711634.4,712101.6,270321.2,580535
294624.8,279598.9,711785.4,599339.6,711631.4,712098.7,270313.8,580110.4
294275.2,279272.2,711765.1,598575.8,711610.4,712078,269884.3,579341
294249.7,279253.8,711763.6,598250,711608.9,712076.4,269756,578795.3
294561.7,279544.3,711786.5,598539.8,711632,712099.3,270051,578602.3
294639.1,279610.8,711791.1,598551.3,711636.6,712104,270155.2,578273.9
294287.4,279280.2,711771.3,597819.9,711616.4,712084.3,269745.6,577528.4
294196.4,279204.3,711773.4,597381.9,711618.8,712085.8,269548.7,576936.8
294466.4,279459.7,711790.4,597596.9,711635.9,712102.8,269789.9,576698.1
294610.3,279591.1,711795.4,597724.4,711641.1,712107.8,269967.6,576422.9
294291.9,279293.9,711775.3,597075.5,711620.8,712087.6,269614.7,575724.6
294123.3,279142.2,711768.1,596519.2,711613.3,712080,269335.1,575070.6
294360.3,279365.2,711785.9,596665.2,711630.8,712097.8,269529.8,574800.2
294582.9,279568.6,711801.9,596904.4,711646.9,712113.8,269784.3,574592.8
294328.3,279327.1,711788,596378.8,711632.9,712099.7,269512.8,573969.9
294085.8,279106.3,711777.6,595729,711622.2,712089,269163.7,573266.3
294263.9,279278.2,711791.9,595766.2,711636.7,712103.2,269282.9,572932.4
294537.6,279535.2,711810.6,596072.4,711655.6,712122.1,269583.3,572761.8
294340.1,279347.8,711791.6,595663.4,711636.7,712103,269383.3,572195.2
294038.8,279071.9,711775.6,594948.1,711620.8,712087.1,268986,571458.6
294154.7,279191.1,711786.4,594874.6,711631.6,712097.6,269031.2,571069.3
294449.3,279466.2,711805,595197.6,711649.7,712116.1,269343.1,570907.5
294341.7,279358.7,711794.6,594938.8,711639.5,712105.8,269247.5,570425.9
294014.3,279057.4,711777.4,594193.4,711622.4,712088.9,268832,569680.8
294061.2,279106.2,711784.3,593989.4,711629.1,712095.4,268788.3,569220
294367.5,279390.7,711805.6,594314.5,711650.3,712116.6,269102.2,569056.9
294364.4,279380.5,711801.9,594226.3,711646.5,712113.1,269127.3,568677.6
294017.5,279056.6,711780.5,593485.7,711624.9,712091.3,268707,567938
293989.3,279039.5,711783.4,593162.5,711627.8,712094.1,268579.8,567418.8
294292.3,279324.2,711806.9,593457.7,711651.5,712117.8,268873,567245.1
294384.4,279403.3,711812.4,593518.3,711656.9,712122.9,268999.9,566954
294038.5,279076.8,711789.4,592817.1,711633.6,712099.7,268601.2,566236.7
293918.6,278973.3,711783.4,592355.3,711627.6,712093.4,268377,565640.3
294186.3,279227.9,711800.6,592581.4,711645,712110.9,268622,565426.9
294351.4,279376.6,711809.3,592752.8,711653.4,712119.4,268823.3,565196.6
294048.9,279093.4,711791.2,592145.4,711635.3,712100.9,268492,564541.4
293858.9,278921.9,711782.8,591574.5,711626.6,712092.3,268192.6,563892.3
294085.8,279133,711801.5,591709.6,711645.5,712110.9,268375,563629.3
294321.3,279345.2,711817.2,591973.9,711661.2,712126.8,268643.1,563452.4
294081.1,279116.9,711799.6,591482.1,711643.2,712109.4,268389.8,562864.7
293816.8,278876.2,711785.4,590813.4,711628.3,712094.5,268023.1,562166.4
293998.2,279052,711803.7,590850.3,711646.5,712112.5,268145.3,561858.9
294268,279303.5,711819.3,591157.9,711662.1,712128.4,268444.8,561701.7
294102.8,279146.3,711807.3,590806.9,711650.3,712116.4,268289.5,561192.2
293796.1,278866,711791.3,590092,711634.3,712100.1,267891.3,560478.5
293915.6,278984.7,711805.4,590013.9,711648.9,712114.2,267933.4,560112.4
294206.9,279254.8,711822.4,590340.6,711665.6,712131.4,268241.2,559962.4
294112.1,279160.1,711809.9,590122.9,711652.9,712118.6,268168.7,559518.9
293772.9,278846.6,711788.8,589381.8,711631.4,712097,267746.6,558793.8
293796.2,278874.3,711794.6,589159.3,711637.4,712103.2,267683.1,558340.6
294107.2,279167.4,711817.1,589487.1,711660.1,712125.6,267993.8,558195.9
294131.3,279185,711818.4,589446.4,711661.4,712126.7,268050.3,557861.8
293778.4,278855.9,711795.7,588718.1,711638.6,712104.1,267633.1,557143.8
293731.6,278818.8,711796.3,588371.3,711639.4,712104.5,267485.4,556629.6
294029.7,279102,711818.9,588661.5,711661.6,712126.5,267772.8,556470.6
294144.8,279206.8,711827.4,588764.6,711669.8,712135,267927.2,556218.8
293818.7,278901.3,711808.9,588102.9,711650.9,712116,267553.2,555545.8
293678.6,278778.2,711801.2,587622.2,711643.4,712108.6,267307.5,554956.2
293937.8,279022.6,711820.3,587834.3,711663.1,712128.3,267538,554750.9
294120.3,279185.7,711829.1,588040.8,711671.7,712137,267758.5,554548.9
293813.3,278894.7,711805.3,587455.3,711647.6,712112.7,267430.1,553909.3
293600.7,278703.2,711792.9,586864.1,711635.1,712099.8,267109.1,553261.9
293838.8,278932.6,711816.8,587008.5,711658.4,712123.6,267301.9,553034.8
294090.7,279164.4,711834.4,587308.1,711676.4,712140.8,267594.4,552895.4
293861.1,278945.4,711819.3,586859.3,711661.3,712125.4,267365,552341.9
293591.4,278699.3,711806.8,586197.4,711648.9,712112.9,266998.2,551665.6
293738.6,278844.4,711817.4,586199.4,711659.8,712123.6,267081.5,551341
294021.4,279109.1,711834.2,586536.9,711676.4,712140.8,267392.9,551214.9
293864.8,278959.9,711819.8,586227.2,711661.9,712126,267251.3,550733.7
293545.6,278666.7,711800.9,585516.3,711642.6,712106.8,266846.1,550031.7
293638.7,278758.5,711814.3,585413.9,711655.8,712119.4,266866.8,549662.1
293948.2,279045.3,711832.8,585765.7,711674.5,712138.1,267192.2,549548.4
293904.6,278998.9,711828.4,585629.4,711670.4,712133.6,267175.7,549175.9
293551.3,278667.6,711806.6,584892.6,711647.9,712111.3,266745.3,548461.9
293566,278688.9,711813.1,584660.1,711654.4,712117.9,266673.8,548023.9
293872.3,278979.3,711836.4,584996.3,711677.9,712141.4,266991.3,547903.9
293910.2,279009.8,711835.9,585000.4,711677.3,712140.9,267071.9,547606.9
293565.1,278689.5,711815.8,584304.5,711657.6,712120.9,266674.9,546929.1
293493,278629.9,711815.1,583936.8,711656.8,712120.2,266506.8,546418
293760.8,278880.3,711831.7,584206.3,711672.9,712136.3,266769.3,546250.3
293884.9,278991.3,711838,584337.1,711679.5,712142.7,266939.2,546025.9
293561.4,278685.9,711815.6,583697,711656.9,712120,266578.2,545377.3
293426.4,278567.8,711813.1,583221.4,711654.3,712116.7,266339.7,544813.1
293673.2,278801.3,711831.7,583424,711672.9,712135.6,266558.8,544612.9
293879.2,278990,711844.7,583673.6,711686.1,712149.3,266810.9,544457.3
293609.3,278734,711826.5,583147.1,711667.9,712130.6,266524.4,543877.5
293385.3,278530.4,711813.9,582550.9,711654.8,712117.6,266197.1,543245.4
293582,278717.2,711829.4,582654.8,711670.3,712133.1,266349.1,542993
293836.3,278955,711843,582966.9,711683.9,712146.6,266640.8,542865.6
293634.7,278762.2,711828.5,582570.9,711669.2,712131.8,266443.3,542358.3
293354.8,278505.8,711815.4,581908.3,711655.9,712117.9,266070.6,541697.3
293503.3,278650.5,711830.6,581912.3,711671.4,712133.7,266159.7,541399.3
293794.6,278921.3,711849.4,582268.9,711690.5,712152.8,266484.2,541299.8
293664.9,278794.3,711836.6,582007.4,711677.3,712139.5,266377.5,540865.2
293318.6,278473.7,711812.7,581273.5,711653.1,712115.2,265945.3,540158.6
293402.7,278561.7,711824.8,581153.9,711665.4,712127.1,265949,539798.3
293718,278854.9,711847.8,581521.7,711688.8,712150.2,266283.1,539713.2
293689.5,278821.9,711843.8,581421.3,711684.4,712145.8,266288.7,539370.8
293338.8,278495.9,711822.1,580695.7,711662.4,712124,265866.3,538680.2
293328.8,278491.5,711824.8,580426.4,711664.8,712126.7,265765.1,538233.9
293637.7,278779,711845,580760.9,711685,712146.6,266072.7,538125.7
293708.3,278840.8,711848.9,580815.8,711689.1,712150.2,266181.5,537874.4
293356.9,278508.2,711825.3,580130.3,711665.4,712126.4,265777.5,537206.5
293264.4,278426.5,711820.5,579737.1,711660.6,712121.4,265587.7,536692.1
293556.1,278700.4,711844.4,580023.8,711685,712145.8,265867.2,536561.3
293702.3,278834,711853.1,580199.1,711693.5,712154.1,266061.3,536374.6
293373.5,278525.6,711829,579582.8,711669.2,712129.9,265706.3,535747.8
293218.1,278389.9,711824.9,579087.1,711665,712125.6,265449.2,535187.1
293462.9,278623.8,711845.2,579283.9,711684.9,712145.2,265662.4,535003.9
293684.5,278828,711859.4,579563,711699,712159.5,265928.4,534876.9
293406.2,278560.5,711837.8,579054.7,711676.9,712137.3,265644.9,534311.6
293181.9,278357.4,711830.6,578462.8,711669.8,712129.2,265322.9,533704
293370.1,278539.5,711847.9,578553.8,711687.2,712145.9,265465.6,533466.1
293616.2,278766.2,711858.1,578871.1,711696.9,712155.6,265752.3,533350.8
293437.7,278595.3,711846.9,578526.8,711685.5,712143,265585.9,532887
293152.6,278333.7,711832.1,577865.8,711670,712126.3,265210.1,532242
293275.7,278454.6,711843.9,577839,711681.3,712136.9,265269.2,531935.1
293563.1,278719.4,711861.8,578196.8,711699.2,712154.3,265586.8,531845.9
293462.7,278618.9,711851.5,577985.4,711689.1,712143.3,265509.2,531453.4
293132.3,278313.3,711832.3,577279.5,711669.2,712122.1,265098.8,530787
293193,278378.9,711842.8,577134.7,711679.3,712131.6,265081.5,530424.1
293513.8,278677.4,711865.6,577512.3,711701.8,712153.8,265417.7,530354.9
293511.8,278668,711862.7,577465.9,711698.9,712150.1,265454.8,530060.2
293155.5,278335.8,711840.3,576759.8,711676.1,712126.1,265038.9,529397.6
293122.8,278311.7,711842.8,576472,711678.3,712127.3,264917.9,528954.8
293413.3,278586.9,711860.6,576796.1,711695.7,712144.4,265210.9,528848.4
293501.8,278665.3,711862.3,576887.6,711696.8,712144.9,265341.9,528627.4
293158.4,278341.6,711839.7,576225.9,711673.6,712120.8,264955.7,527989.4
293063.9,278259.2,711838.9,575823.5,711672.4,712118.4,264762.2,527492
293320.9,278499.3,711855.2,576074.6,711688.4,712133.9,265007.5,527343.7
293499.1,278662.3,711866.2,576292.3,711699.8,712144.1,265231.7,527197.5
293198,278373.4,711846.6,575722.8,711680,712122.9,264906,526616
292995,278190.6,711831.4,575183.6,711664,712106.3,264607.6,526034
293228.7,278414,711850.4,575370.3,711682.8,712124.4,264814.2,525862.4
293468.2,278634.1,711869.8,575679.9,711701.8,712142.8,265102.3,525772.4
293223.2,278398.8,711852.4,575224.9,711683.9,712123.8,264859.3,525261.4
292970.4,278171,711838.4,574613.9,711669.8,712108,264515.4,524653.9
293146.2,278340.9,711852.9,574686.2,711683.9,712121.3,264639.4,524415.6
293425.5,278599.3,711871.7,575044.8,711702.2,712139.6,264960.7,524349.7
293250.3,278430.5,711858.7,574727.1,711688.6,712124.6,264809.4,523912.2
292939.7,278145.7,711839.3,574049.1,711668.9,712103.4,264415.3,523264.7
293052.8,278258.4,711851.7,574006.8,711681,712115.2,264463.1,522965.8
293348.3,278531,711869.9,574374.7,711699,712132.3,264783.7,522897.8
293276.6,278460.8,711862.7,574214.4,711691.4,712123.8,264739.7,522552.3
292923.6,278131.1,711840.4,573501.8,711668.3,712099.3,264316.5,521891
292965.4,278176.4,711848.4,573332.6,711676.6,712106.6,264277.8,521529.3
293278.9,278470.4,711871.6,573705.8,711699.1,712128.9,264608.9,521472.8
293299.4,278485.2,711870.8,573698.3,711697.9,712126.4,264672.2,521213.5
292945.3,278154.3,711846.9,573005.9,711673.9,712100.8,264262.6,520566.7
292910.3,278128.8,711851.9,572711.7,711678.5,712104.4,264143.4,520140.2
293208.6,278407.6,711875.6,573038.1,711701.8,712126.9,264443.8,520057.2
293307,278492.3,711878.1,573157.1,711704.1,712128.1,264589.9,519863.7
292976,278181.9,711854.9,572525.8,711679.9,712103.2,264221.3,519256.6
292853.8,278074.5,711852.3,572102.1,711676.9,712098.8,264007.4,518759.1
293117.1,278322.9,711874.9,572363,711699.3,712120.2,264258.7,518637.1
293297.7,278484.5,711886.4,572608.2,711710.9,712131,264492.3,518515.3
293003.8,278208.3,711865.4,572067.9,711689.5,712107.9,264181.4,517962
292801.3,278027.2,711855.7,571531.3,711678.9,712095.9,263884.2,517401.4
293021,278236.6,711874.6,571698.4,711697.3,712113.2,264071.3,517229.6
293266.2,278464.7,711890.1,572025.9,711712.6,712128.4,264367.2,517158.4
293038.4,278250.4,711870.6,571604.9,711692.6,712106.9,264139.6,516673.9
292760.8,277996.5,711849.4,570967.2,711671.4,712083.7,263767.1,516054.9
292928.9,278159.6,711864.4,571028.8,711685.8,712097,263886.7,515830.4
293213.4,278423.5,711884.3,571400.8,711705.3,712115.8,264215.5,515785.8
293072,278286.9,711873.9,571134.3,711694.4,712103.4,264095.2,515391.7
292754.5,277993.5,711854.2,570457.9,711674.6,712081.8,263697.8,514764.2
292837.1,278074.3,711860.4,570377.3,711680.3,712086.6,263712.7,514454.6
293141.6,278359.3,711881.3,570761.4,711700.9,712106.6,264044.8,514411.4
293088.1,278301.9,711876.6,570645.3,711696.5,712100.3,264028.9,514102.6
292744.2,277982.1,711854.8,569949.8,711673.4,712075.6,263618.5,513468.2
292760,278005.1,711861.9,569750.6,711680.1,712080.9,263555.1,513098.9
293073.9,278299.3,711885.4,570124.4,711703.6,712103.8,263883.7,513055.1
293112.8,278328.7,711883.7,570153.9,711701.8,712100.6,263967.5,512827.6
292773.5,278011.3,711863.6,569494.3,711680.8,712077.8,263580.6,512220
292708.4,277956.1,711864.6,569165.5,711681.1,712076.4,263427.5,511782.4
292996.1,278229,711884.4,569479.6,711700.9,712095.4,263713.1,511700.5
293122.4,278341.8,711889.1,569643.6,711705.1,712098.4,263888.7,511545.8
292798,278034.7,711867,569039.9,711682.2,712073.5,263535.6,510967.7
292660.4,277915,711863.7,568597.6,711678.1,712068.3,263305.1,510473.1
292917.2,278156.2,711882.3,568840.6,711696.9,712085.6,263542.4,510353.8
293115.7,278334.8,711893.8,569108.4,711708.1,712095.6,263789.6,510259.9
292837.1,278068.1,711875.9,568604.3,711689.5,712075.1,263504.6,509743.9
292622.7,277873.3,711864,568053.8,711677.3,712060.4,263197.1,509193.4
292828.4,278071.9,711880.2,568197.2,711693,712075.4,263363.6,509020.6
293079.5,278308.3,711895.9,568539.6,711708.6,712089.4,263664.1,508968.7
292869,278109.4,711879.4,568162.3,711691.9,712070.6,263464.6,508523.3
292589,277853.5,711864.8,567531.8,711676.4,712053.2,263099.2,507929.9
292731.3,277991.3,711877.7,567562.6,711688.9,712063.9,263189.7,507695.2
293028.8,278267.2,711898.1,567954.9,711709,712082.7,263527.9,507673.9
292907.1,278148.2,711887.2,567732.3,711698.2,712069.4,263436.5,507316.3
292591.3,277855.3,711867.9,567061.6,711678.3,712046.7,263043.7,506707.6
292670,277933.6,711877.9,566972.9,711687.6,712053.6,263053.6,506410.3
292978.2,278221.9,711900.7,567366.7,711710,712074.3,263389.7,506386.3
292943.2,278182.9,711894,567288.8,711702.9,712065.2,263396.6,506108.3
292605.2,277868.5,711873.3,566612.3,711681.8,712039.8,262998.6,505500.6
292605.4,277876,711878.4,566394.4,711687,712040.9,262920,505135.2
292904.5,278157.7,711896.4,566754.4,711704.9,712056.3,263231.7,505089
292964.5,278210.5,711896.7,566826.7,711704.6,712051.7,263339.5,504894.5
292633.4,277900.4,711877.5,566193.9,711684.8,712022.1,262964.3,504313.7
292549.8,277826.3,711875.9,565847.5,711682.5,712000.4,262791.8,503875.9
292827.1,278086.5,711895.9,566155.6,711701.1,711944.5,263065.7,503801
292981.4,278226.6,711905.5,566367.7,711704.5,711618.1,263274.9,503691.9
292672.8,277936.3,711885.8,565801.2,711678.9,710840.1,262944.3,503152.9
292510.8,277794.2,711876.4,565332.1,711667.9,710034.9,262688.8,502655.1
292742.4,278014.2,711891.8,565549.6,711682.8,709518.9,262900.2,502528.8
292959.3,278211.8,711905,565850.4,711695.8,709036.8,263168.3,502466
292695.3,277959.7,711883.6,565376.6,711673.6,708122,262896.4,501973.2
292465.2,277748.5,711871.8,564814.3,711661.1,707175.9,262576.7,501426.6
292666.9,277945.1,711890.7,564953.7,711679.4,706615.2,262740.5,501265.9
292931.1,278189.5,711906.6,565319.6,711694.9,706178.9,263052,501235.7
292750.8,278016.7,711895.3,564996.8,711682.8,705401.3,262886.8,500833.4
292462.1,277749,711877,564361.6,711664,704486.3,262513.8,500248.8
292595.9,277876.8,711890.4,564374.9,711677,703910,262590,500018.3
292894.4,278153.2,711910.3,564771.2,711696.8,703525.8,262928.6,500009.8
292785.1,278046.7,711897.6,564581.9,711683.7,702853.3,262856.2,499680.2
292445.5,277730.3,711874.5,563897.1,711659.8,701948.9,262444.4,499068
292506.1,277793.4,711884.3,563782,711669.1,701335.2,262432.7,498770.5
292817.4,278082.9,711907.8,564175.1,711692.2,700961.4,262766.5,498758.9
292799.9,278059.2,711900.3,564131.5,711683.9,700372,262790.6,498509
292455.5,277738.1,711875.8,563456.4,711659.4,699491.1,262387.8,497910.4
292440.8,277732.6,711881.1,563216.7,711664.2,698832.1,262295,497549.1
292743.2,278012.1,711903.2,563577.1,711686,698447.7,262604.5,497520.2
292828.5,278082.8,711906.6,563686.6,711688.9,697945.1,262738.1,497362.3
292483.8,277757.7,711882,563050.4,711664,697082,262357.5,496786.6
292374.3,277665.1,711878.3,562671.6,711659.8,696354.9,262164.3,496345.6
292649,277925.3,711899.4,562967.9,711680.6,695945.3,262433.5,496279.4
292807.2,278067.6,711908.4,563196.4,711689.4,695499.3,262647.8,496185.9
292505.6,277782.2,711888.1,562651.1,711668.7,694685,262326.3,495668.1
292321,277616.4,711877.7,562157.6,711657.9,693905.8,262050.7,495168
292559.1,277847,711899.3,562374.5,711679.4,693466.6,262267.1,495062.7
292793,278062.5,711915.3,562702.3,711695.6,693078.8,262553.8,495027.5
292534.2,277812.8,711894.9,562256.3,711674.8,692306.3,262295.1,494555.6
292293.4,277590.3,711883.3,561678.4,711662.7,691491.1,261961.9,494012.7
292472.3,277763.9,711896.1,561784.1,711675.4,690999.1,262097.4,493842.7
292751.4,278022.9,711914.4,562168.3,711694,690638.6,262421.1,493836.3
292586.2,277860.9,711901.9,561879.8,711681.4,689950.9,262274.1,493460.7
292292.5,277586,711883.8,561245.6,711662.9,689113.2,261898.6,492891.9
292426,277718,711900.1,561253.3,711679.1,688589.5,261973.1,492678.7
292712.9,277982.6,711914.6,561644.1,711693.4,688222.8,262295,492667.7
292617.9,277885,711900.6,561489.4,711679.1,687595.1,262237.5,492364.3
292278,277570.6,711878.4,560818.9,711656.7,686738,261837.4,491779.7
292330.8,277629.8,711889.8,560691.6,711660.3,686154.4,261821,491491.4
292637.1,277915.2,711909.4,561079.9,711667.8,685714.3,262146.7,491484.1
292648.4,277915.3,711906.7,561085.3,711681,685056.6,262200.6,491270.6
292297.3,277584.6,711883,560421.8,711660.9,684404.6,261793.4,490684.4
292247.8,277543.3,711883.5,560142.9,711661.3,683994.6,261661.7,490304.5
292543.8,277821.3,711906.5,560498,711684.8,683882.1,261966.5,490282.5
292658.9,277924.2,711911.6,560657.3,711690.3,683678.8,262132.2,490162.5
292324.9,277608.2,711888.7,560045.9,711667.1,683099.1,261761.1,489609.4
292184.1,277480.9,711879.3,559627.3,711657.5,682610.9,261526.4,489146.8
292443.3,277725.9,711895.6,559904.8,711673.9,682454.9,261773.7,489076.4
292628.3,277894.9,711906.3,560169.9,711684.3,682298.3,262013.8,489016.1
292350,277630.1,711890.9,559669.4,711668.9,681779.6,261724.3,488535.6
292146,277441.7,711879.8,559158.7,711657.9,681252.4,261430.9,488030.8
292368.5,277653.2,711897,559353.7,711675.1,681060,261624.1,487918.1
292609.1,277874.6,711913.1,559699.3,711691.3,680938.7,261919.4,487900.2
292365.6,277642.5,711893.4,559293.3,711671.6,680447.6,261689.9,487463.3
292100.5,277401.3,711876.4,558695.5,711654.4,679876,261336,486913
292276.9,277573.2,711894.1,558793.3,711671.8,679645.3,261467.8,486753.5
292558.3,277835,711911.7,559185.1,711690.1,679543.7,261796.3,486761.5
292408.1,277691.4,711898.7,558933.2,711677.1,679126.9,261673.5,486414.9
292096.3,277401.2,711880.8,558287.4,711658.9,678529.6,261284.1,485843.4
292197.5,277502.2,711891.5,558256.8,711669.4,678234.6,261327.1,485609.9
292490.8,277776.6,711909.6,558661.1,711687.6,678135.9,261661.8,485621.4
292438.8,277720.9,711901.9,558569.6,711680.1,677801.1,261651.7,485370.8
292104.1,277406.3,711879.3,557903.6,711657.6,677196.3,261248.5,484795.9
292126.8,277434,711887.2,557736.4,711665.2,676837.9,261195.1,484488.3
292423.8,277712.9,711909.3,558124.3,711687,676734.1,261518.5,484490.7
292467.7,277749.4,711910.9,558183.8,711688.6,676474.3,261610.9,484324.7
292119.3,277421.2,711886.4,557538,711663.8,675873.1,261215.8,483761.9
292055.7,277368.9,711886,557234.9,711664,675444.8,261068.7,483379.8
292355.3,277650.5,711909.8,557588.2,711687.3,675328.8,261372,483366.6
292485.5,277768.5,711916.3,557779.3,711693.5,675133.5,261555.9,483275.3
292163.9,277463.9,711894.1,557201.7,711671.4,674565.1,261209,482758
292023.2,277337.7,711886.4,556777,711663.8,674075.2,260974,482310.3
292290,277589.1,711909.9,557055.3,711687.6,673923.2,261226,482256.9
292498.4,277780.1,711924.4,557356.5,711702,673781.8,261489.4,482228.2
292195.8,277490.4,711897,556846.7,711674.5,673234.5,261180.2,481738.3
291988.7,277303,711886.9,556326.4,711664.2,672707.8,260882.9,481244.6
292196.2,277505.9,711903,556501.1,711680.8,672503.1,261060,481129.1
292436.6,277725.3,711916.7,556858.1,711694.5,672381,261357.6,481124.9
292226.4,277523.7,711900.5,556506.2,711677.9,671918.6,261164.1,480737.3
291961.4,277284.9,711886.4,555916.8,711664.4,671358.3,260817.6,480213.3
292112.4,277433.4,711900.9,555983.8,711678.9,671106.3,260923.1,480042.6
292398.8,277699.6,711919.6,556387.6,711697.6,671007.1,261253.7,480065.7
292279.7,277583.8,711910.3,556186.6,711688,670618.8,261166,479766.5
291960.1,277289.1,711892.1,555540.6,711669.6,670024.1,260776.9,479211.9
292028.1,277357.7,711897.9,555466.4,711675.9,669700.4,260780.1,478960.8
292328.7,277639.1,711917.9,555875.2,711695.9,669601,261113.2,478984.6
292294.9,277602.5,711913.4,555824.3,711691.2,669283.6,261125.3,478764.3
291948.8,277280.2,711892.8,555167.8,711670.8,668681.6,260723.8,478203.4
291953.5,277293.3,711897.8,554976.8,711675.4,668308.2,260650,477892.3
292255.6,277577.7,711920.4,555365.9,711698.4,668203.6,260971.6,477905.7
292312.7,277624,711919.8,555456.6,711698,667959.5,261086.7,477767.3
291975.6,277305.8,711895.7,554829.3,711674.3,667370.4,260704.1,477226.4
291899.8,277239.5,711894.1,554508.1,711672.9,666933,260540.7,476843
292172.2,277494.3,711912.1,554831.3,711690.8,666791.6,260813.8,476814.5
292310.8,277617.8,711916.5,555039.8,711694.9,666601.1,261005.3,476736.8
292001.3,277325.5,711895.9,554484.6,711674.1,666047.4,260673.8,476241.4
291860.3,277200.3,711892.9,554058.6,711671.4,665571.3,260441.5,475813.1
292095.4,277423.3,711910.9,554305.9,711689.1,665395.9,260659.7,475743
292306.4,277618.9,711923.8,554626.6,711701.6,665260.4,260930.8,475731.8
292049.5,277373.7,711905.5,554185.9,711683.7,664760.4,260673.7,475303.1
291822.1,277164.9,711892.6,553649.7,711671.2,664222.3,260358,474810
292022.6,277357.4,711911.1,553810.3,711689.5,664017.1,260528.5,474706.3
292287.6,277604.2,711928.2,554193.9,711706.3,663912.4,260847.5,474734.8
292088.6,277414.6,711910.2,553867.9,711688.8,663457.6,260665.7,474367.9
291809,277155.9,711896.1,553263.4,711674.4,662888.9,260304,473845.6
291951.7,277294.5,711911.1,553310.8,711689.5,662632.5,260396.4,473678.6
292255.4,277580.4,711932.4,553739,711710.7,662555.2,260748,473732.6
292134.4,277461.9,711918.6,553556.7,711697.1,662167.9,260663.6,473444.2
291798.6,277147.9,711895.8,552896.2,711674.1,661559.6,260252.5,472885
291857.1,277208,711903.9,552805.6,711682.1,661234.3,260244.8,472638.2
292177.4,277506.5,711927.1,553229.4,711705.6,661154.8,260592,472685.9
292183.6,277505,711927.8,553230.1,711706.3,660873.6,260645.1,472510.7
291837.7,277180.2,711905.3,552579.3,711683.4,660277.7,260245.8,471964.8
291806.2,277155.9,711903.9,552344.4,711682.2,659881.2,260138,471636
292099.9,277434.1,711925.3,552724.3,711703.7,659775.5,260452.3,471655.2
292179.4,277501.2,711928.7,552852,711707.1,659548.3,260586.1,471544.2
291845.1,277187.2,711907.4,552246.4,711686.1,658971.8,260216.6,471028
291754.1,277107.5,711906.1,551906.6,711684.8,658534,260040,470648.5
292036.9,277375.6,711929,552234.2,711707.3,658408.5,260320.8,470639.8
292189.9,277514.2,711934.2,552471.3,711712.9,658232.5,260532,470584.8
291891.8,277230.6,711914.7,551945.8,711693.6,657697,260218,470114.5
291699.8,277056.5,711901.2,551463.1,711679.9,657178.4,259935.1,469647.8
291934.7,277279.1,711918.6,551697.9,711697.4,657004.8,260150.6,469585.9
292161.3,277487.2,711932,552041.1,711711.1,656883.4,260435.8,469597.2
291913.3,277252,711912.9,551625.4,711692,656395.3,260192.9,469190.1
291680.5,277041.8,711901.1,551080.3,711680.1,655863.3,259873.7,468707.5
291870.6,277223.9,711919.9,551217.3,711698.8,655656.1,260026.9,468597.7
292154.3,277483.3,711941.6,551626.8,711720.6,655575,260361.6,468647.8
291978.6,277310.7,711925,551343.9,711704,655144.7,260204.5,468310.1
291675.3,277029.8,711902.9,550718.3,711681.9,654564.5,259823.3,467780.1
291808.1,277159.9,711917.5,550744.7,711696.8,654307.8,259902,467614.4
292099.2,277426.6,711936,551159.9,711715.6,654217.4,260234.6,467658.3
292009.9,277337.9,711928.1,551033,711707.5,653867.1,260187.3,467409.5
291679.1,277031.9,711907.6,550387.1,711686.6,653274.1,259789.4,466870.9
291736.7,277094.5,711918.2,550290.6,711697.1,652958.3,259781.6,466636.8
292040.8,277379.4,711938.9,550704.9,711717.7,652872.9,260117.5,466686.2
292041.1,277372,711933.9,550720.6,711713.2,652591.7,260169.2,466517
291694.8,277045.3,711910.5,550079.5,711689.8,652000.4,259770.9,465985.3
291649.4,277009.2,711907.6,549826.5,711687,651600.1,259647.1,465657.4
291953.5,277297.2,711932.7,550214.1,711712.3,651510.3,259966.5,465695.3
292063.5,277395.3,711940.6,550390.8,711720.4,651318.3,260137.3,465627.8
291732.4,277081.6,711916.8,549801.9,711696.1,650750.3,259773.1,465124.9
291622.3,276984.5,711911.5,549432.4,711691,650300.6,259571.6,464734
291876.8,277222.8,711931,549729,711710.6,650159.6,259822.8,464707.4
292047.6,277378.1,711940.2,550000.8,711719.2,650008.1,260053.1,464683.8
291765.9,277113.5,711922.6,549511.4,711701.8,649497.4,259763.8,464249
291573.1,276940.6,711912.5,549028.7,711691.9,648993.3,259485.6,463801.7
291802.5,277159.8,711929.6,549249.3,711709.3,648825.9,259694.8,463746.4
292039.3,277378.3,711943.4,549607.3,711723.1,648721.7,259992.6,463774
291807.8,277156.4,711926.5,549226.3,711705.9,648258.6,259773.7,463395.6
291548.8,276916.8,711912.4,548656.4,711691.9,647712.2,259430.3,462902.3
291710.4,277070.3,711923.3,548758.5,711702.8,647480.2,259549.5,462773.5
291999.5,277341.7,711943.9,549180.9,711723.4,647409.1,259891.2,462839.1
291848.6,277196,711931.4,548947.3,711710.6,647016.2,259772.8,462546.1
291528.9,276897.3,711909.1,548311.4,711688,646429.8,259379,462014.3
291637.2,277001.9,711922.7,548305.2,711702,646159.4,259429.5,461835
291947,277289.4,711943.6,548735.7,711723.5,646093.2,259773.1,461905
291892.3,277234.6,711936.6,548655.9,711716.8,645776.6,259760.2,461697.5
291550.4,276918.4,711913.2,548010.4,711693,645191.2,259360.7,461171.6
291573,276948.7,711920.6,547871.4,711700.3,644861.4,259319,460919.6
291890.9,277247.9,711944.5,548290.2,711723.8,644793.3,259659.7,460983.4
291918.7,277267.8,711941.8,548346.7,711721.6,644543.3,259744.2,460852.6
291572.5,276943.4,711918.8,547718.5,711699,643966.9,259354,460336.8
291521.9,276901.6,711920.8,547446.9,711700.5,643572.3,259219.5,460010.9
291816.3,277179.9,711943.3,547811.1,711723,643475.4,259521.3,460044.6
291926.9,277279.8,711945,547996.1,711725,643286.8,259690.8,459983.5
291600.1,276971.9,711923.3,547426.4,711703.2,642736.3,259340.3,459501.7
291471.3,276859.3,711918.6,547037.1,711698.4,642290.3,259129.1,459117.9
291740.3,277113.8,711939.5,547339.7,711719.6,642169.9,259390.4,459117.9
291940.2,277297.9,711954.9,547652.8,711735.3,642049.7,259655.2,459134
291655.8,277031.4,711932.7,547175.2,711712.8,641537.8,259366.2,458704.2
291450.1,276847.8,711923.1,546680.6,711703,641039.7,259079.7,458261.7
291661.9,277047.9,711941.6,546883.6,711721.1,640868.9,259272.6,458204
291902.3,277269.5,711953.7,547255.7,711733.5,640767.7,259572,458243.9
291694.9,277072.1,711938.3,546916.8,711718.3,640329.6,259379.3,457900.4
291425.5,276825.8,711922.4,546336.2,711702.8,639783.9,259026.5,457410.5
291585,276981.4,711938.3,546428.5,711718.6,639565.6,259144.4,457291.9
291875.5,277251.2,711958.6,546854.6,711738.9,639500,259486.7,457366.1
291745.1,277123.7,711945.9,546658.7,711726.5,639127,259391,457097.6
291431.7,276832,711925.8,546031.5,711706.1,638555.1,259004.3,456584.3
291513.8,276912.7,711932.5,545986.4,711712.9,638264.1,259021.1,456385.5
291820.3,277197.4,711951.8,546414.4,711732.6,638196.9,259362.4,456459.8
291783.3,277156.2,711947,546369.9,711727.6,637902.6,259371.3,456281.2
291446.6,276839.9,711924.9,545728.9,711705.3,637327.8,258973,455767.7
291465.7,276866.6,711930.9,545565.5,711710.9,636990.4,258914,455512
291778.6,277161.4,711956.9,545982.1,711737.1,636923.7,259251,455582.9
291833.7,277207.3,711958.4,546086.1,711738.7,636703.9,259367.7,455488.3
291486.3,276878.8,711933.8,545468.5,711714.4,636137.9,258985.5,454987.7
291414.1,276815.5,711933.3,545173.9,711713.8,635742.9,258834.1,454660.8
291706.3,277089.6,711955.7,545532,711736,635649.1,259130.2,454698.5
291838.6,277207.1,711958.4,545748.9,711739.5,635476.7,259320.1,454660.3
291512.1,276898.9,711932.9,545197.9,711713.8,634934.9,258977.3,454197.4
291369,276771.4,711928.4,544787.5,711709.2,634484.8,258748.5,453812.2
291617.1,277007.7,711948.1,545056.6,711729.2,634349.9,258982.1,453796.5
291829.3,277198.3,711959.3,545382.1,711740.3,634237.7,259250.6,453821.3
291564.2,276943.1,711938.3,544941.9,711719.6,633754.6,258989.1,453424.9
291346.1,276745.3,711928.4,544432.4,711709.8,633257.9,258693,452986.7
291549.7,276940.1,711948.6,544614.9,711729.4,633087.2,258869.8,452926.6
291806.5,277177.2,711966.1,545009.6,711747.3,633010.4,259185.1,452989.9
291613.3,276992.1,711950.1,544708.4,711731.5,632598.1,259016.3,452673.3
291318.6,276720.8,711928.4,544103,711709.6,632041.6,258640.4,452173.8
291450.4,276850,711939.8,544156.2,711721.3,631807.6,258725.8,452038.1
291754.8,277132.8,711963.4,544593.7,711744.7,631762.4,259079.6,452133.4
291648.3,277026,711956.4,544440.9,711737.5,631427.9,259017.7,451906.5
291318,276720.9,711934.9,543805.6,711715.9,630862.4,258624.3,451400.9
291382.2,276789.2,711942.2,543736.7,711723,630574.5,258626.5,451202.8
291685.7,277071.9,711962.6,544163.7,711743.6,630515.9,258965,451284.3
291674.7,277052.9,711958.6,544159.5,711740.1,630251,259000.3,451136.7
291336.6,276736.6,711938.1,543528.1,711719.4,629690.9,258609.3,450639
291335.9,276741.3,711944.9,543337.9,711726,629351.2,258532,450378.2
291622.7,277010.5,711960.9,543720.9,711742.7,629264.1,258837.1,450425
291691.4,277067.9,711960.3,543850.3,711742,629058.4,258964.5,450346.2
291358,276755.5,711938.1,543258.6,711719.6,628513.1,258595.3,449870.3
291260.3,276670.2,711934.8,542932.2,711716.5,628100.9,258416.9,449532
291537.8,276928.9,711956.2,543269.8,711738.4,628001.7,258695.8,449565.3
291691.3,277066.6,711963.3,543519.7,711745,627858.6,258908.3,449556.9
291385.3,276777.6,711942.3,543001.3,711724.6,627348.5,258588.6,449123.3
291221.1,276630.7,711935.6,542562.3,711717.8,626890.9,258335.8,448725.8
291467.3,276864.2,711957.4,542824.9,711739.4,626764.8,258569.3,448720.1
291693.6,277069.1,711971.9,543175.9,711753.9,626673.6,258854.7,448770.3
291461.9,276848.4,711955.1,542785.1,711737.6,626228.5,258627,448415.7
291228.5,276638.3,711943.1,542257.6,711725.4,625727.1,258313.8,447974.8
291402.2,276806.6,711957,542400.5,711739.1,625535.1,258457.5,447894.7
291673,277058.4,711974.3,542808.9,711756.6,625474,258783.6,447975.8
291485.9,276877.4,711956.9,542528.4,711739.4,625070.9,258624.3,447672.7
291190.4,276604.5,711939.6,541927.1,711721.5,624530.8,258255.5,447191.7
291313.8,276727.7,711952.6,541964.6,711734.2,624302.4,258331,447059.2
291611.4,277002.8,711974.4,542403.6,711756.8,624256.6,258676.6,447156.6
291527.2,276919,711966.5,542290.1,711748.9,623944.4,258637.2,446957.3
291205.8,276623.5,711946.8,541664.4,711728.8,623395.4,258249.8,446469.5
291242.6,276663.5,711951.8,541558.9,711733.8,623089.9,258222.9,446254.2
291548.2,276948.3,711975.1,541984.1,711757.6,623036.5,258559.5,446340.6
291553.8,276943.8,711971.3,542011.6,711754.3,622790.4,258616.8,446215
291210,276619.3,711946.9,541383.3,711729.3,622232.8,258222.9,445723.6
291184.9,276603.1,711951.2,541160.9,711733.3,621884.7,258121.4,445453.4
291475.3,276873.7,711971.6,541542.8,711753.9,621811.5,258427.9,445513.7
291567.2,276954.2,711972.6,541707.3,711754.9,621629.9,258577.9,445465
291245.3,276652.6,711951.3,541141.2,711733.9,621107.7,258229.7,445016.8
291130.9,276553.9,711946.6,540785.6,711729.4,620691.3,258031.4,444667
291401.6,276811.5,711968.2,541112.9,711750.8,620599.4,258304.6,444701.3
291569.9,276966.7,711975.9,541394.7,711758.7,620476.5,258536.9,444715.1
291274.1,276684.9,711954.1,540903.5,711736.5,619980.6,258233,444303.3
291098.3,276522.7,711946.8,540449.9,711729.1,619522.8,257970.5,443910
291328.8,276738.9,711965.1,540687.9,711747.7,619387.5,258177.7,443890.9
291563.2,276952.7,711978.1,541059.1,711761,619312.6,258472.9,443956.3
291319,276719.2,711958.5,540683.8,711741.6,618872.8,258246.6,443608
291070.5,276491.6,711947.6,540141.4,711730.4,618370.9,257917.5,443165.1
291246.2,276664.6,711964.4,540274.6,711747.2,618191.5,258056.9,443092.1
291525.2,276924.3,711981.6,540692.9,711764,618140.6,258388.3,443182.4
291374,276777,711968.1,540463.1,711750.8,617777.7,258266.9,442920.5
291073.2,276501,711950.4,539857.1,711733.1,617243.6,257890.5,442442.8
291173,276600.2,711959.7,539857.3,711742.4,616995.4,257932.7,442289.1
291484.5,276889.8,711980.6,540301.5,711763.6,616958.8,258279.7,442393.2
291429,276831.1,711974.4,540230.6,711757.4,616674.1,258267.6,442223.1
291098.3,276517.8,711956.3,539605.2,711739.1,616128.9,257876.8,441740.1
291136.5,276556.3,711963.6,539491.1,711746.6,615838.5,257844.3,441532.2
291436.3,276834.9,711982.5,539906.5,711765.8,615784.3,258170,441614.6
291460.4,276852.8,711979.6,539970.3,711763.4,615561.2,258251.1,441517.3
291115,276532.7,711957.6,539358.6,711741.1,615020.4,257870.2,441045.8
291061.6,276490.1,711957.4,539104.4,711740.3,614657.3,257741.8,440759.8
291352.8,276762.7,711978.4,539486.9,711761.8,614593.9,258046.5,440830.2
291473.3,276869.7,711984.4,539694.3,711767.6,614448.3,258226,440814.7
291152,276567.6,711963.4,539140.9,711746.6,613935.2,257880.8,440375.4
291020,276450.2,711954.9,538759.4,711738.3,613508.4,257661,440019
291273.2,276688,711972,539061.8,711755.5,613403.8,257907.9,440043.1
291464.3,276863.6,711983.1,539376.1,711766.6,613308.8,258164.3,440087.4
291189.6,276604.6,711962.8,538921.1,711746.3,612842.6,257889.4,439707.8
290982.8,276418.9,711952.4,538439.8,711736.1,612375.5,257603.1,439301.9
291195.9,276623,711971.6,538652.4,711754.9,612235.6,257791,439275.8
291445.1,276851.8,711987.1,539040.4,711770.6,612177.5,258098.7,439358.3
291236,276652.5,711970.7,538710.8,711754.1,611775.9,257908.4,439049.1
290975.3,276412.2,711956.8,538153.9,711740.4,611275.4,257570.3,438606.3
291130,276561.5,711971.4,538256.5,711754.9,611084.5,257684.7,438519.6
291407.7,276818.4,711987.9,538684.3,711772.1,611039.4,258015,438617.7
291270,276683.6,711974.1,538490.6,711758.3,610692.8,257915.2,438380
290960.5,276400.5,711956.6,537879.8,711740.4,610162.5,257538,437908.7
291043.9,276484,711964.6,537855.9,711748.3,609913.6,257563.9,437751.3
291343.4,276761.8,711983.2,538292.3,711767.2,609877.6,257901.6,437854.5
291305.6,276718.7,711979,538254.5,711763.1,609612.6,257910.6,437707.6
290972.8,276410.3,711958.8,537636.3,711742.9,609076.9,257524.8,437236.3
290982.9,276427.1,711963.7,537492.1,711747.6,608774.4,257469.8,437015.8
291295.5,276718.3,711987.9,537923.6,711771.8,608741.9,257807.2,437118.9
291352.2,276764.5,711990.1,538036.8,711774.2,608559.9,257922.3,437059.3
290997.4,276431.5,711965.1,537424.2,711749.3,608019.8,257531.5,436586
290923,276372.6,711961.6,537135.8,711745.8,607648.4,257376.4,436286.3
291210.9,276645.8,711983.6,537503.1,711767.9,607585.6,257672.3,436354
291341.9,276764.7,711989.8,537735.1,711773.8,607454,257869.5,436356
291021.4,276460.6,711968.1,537197.2,711751.8,606954.4,257532.8,435930.7
290870.3,276324,711959.4,536793.4,711743.4,606527.4,257297.1,435568.6
291128.2,276567.3,711979.6,537092.1,711763.7,606435.7,257543.9,435598.9
291346.4,276766.7,711994.8,537438.9,711778.9,606366.1,257821.1,435669
291080.3,276511.3,711975.1,537008.6,711759.4,605915.1,257556.3,435306.1
290868.7,276318.7,711964,536516.1,711748.3,605454.9,257261.4,434902.2
291066.5,276508.9,711978.4,536704.6,711762.8,605307.9,257432,434865.8
291328.7,276749.3,711993.9,537109.7,711778.9,605264.4,257749.1,434962.4
291134.2,276560.9,711980.3,536813.1,711764.9,604884.4,257577.8,434676.3
290855.9,276309,711963.7,536239.5,711748.1,604379.4,257224.7,434229
291000.1,276450.9,711976.6,536323.3,711761.3,604190.7,257327.5,434140.9
291294.6,276723.8,711997.4,536766.4,711782.4,604170.3,257673.7,434261.6
291181.1,276609.2,711985.6,536608.6,711770.3,603856.9,257598.8,434053.1
290866.3,276318.3,711967,535997.6,711751.8,603337.6,257217.3,433587.5
290938,276389.3,711976.4,535950.3,711760.7,603089,257230.4,433426
291234.8,276662.8,711994.3,536378.3,711779.1,603053.4,257561.4,433529.4
291217.4,276640.7,711991.8,536381.6,711776.9,602818.8,257600.1,433413.5
290871,276317.6,711967.8,535754,711752.6,602280.8,257201.9,432938.9
290869.9,276322,711970.6,535578.4,711755.7,601972.3,257125.5,432709.9
291174.2,276604.6,711991,535989.3,711775.9,601936,257449,432808.8
291244.4,276659.1,711992.3,536127.9,711777.3,601765.7,257577.6,432764.8
290912.3,276346.6,711970.1,535548.9,711754.9,601254.3,257215.5,432321.6
290832,276279,711970.3,535249.5,711754.5,600889.2,257054.1,432023.3
291111.7,276541.8,711991.1,535604.3,711775.6,600828.3,257338.3,432088.5
291264.6,276681,711998.4,535866.6,711783.3,600721.3,257553.4,432112.2
290959.4,276394.6,711975,535353.8,711760.1,600235.2,257231.3,431704.3
290801.5,276255,711968.9,534939.9,711753.9,599816.1,256992.8,431349.2
291039.3,276480.9,711987.8,535210.9,711772.8,599714.4,257221.7,431368.4
291256.6,276676.3,712002,535567.6,711787.1,599649.3,257501.7,431443.6
291014.3,276440.4,711983.4,535177.9,711768.7,599231.4,257267.1,431115
290773.9,276220.3,711969.4,534654.1,711754.3,598754.9,256947.4,430698.6
290965.9,276408.8,711986.8,534825.6,711771.8,598612.6,257108.6,430665.9
291230.6,276658.4,712003.1,535242.5,711788.5,598582.5,257431.6,430774.7
291059.4,276492.9,711990.9,534987.3,711775.9,598228.4,257287.2,430521.2
290770.6,276224.9,711975.9,534402.8,711761.2,597725.4,256922.4,430075.1
290885.6,276336.1,711984.1,534444.2,711769.7,597518.3,256991.1,429966.5
291178.8,276605.7,712002.5,534886.2,711788.1,597498.6,257330.7,430087.6
291092.3,276519.9,711995.8,534777.3,711780.9,597217.4,257285.8,429912.4
290766.5,276218.4,711975.2,534164.4,711760.7,596702.1,256899.9,429454.2
290820.3,276275.5,711983,534093.8,711768.4,596449.9,256894,429288
291119.7,276558.4,712003.7,534534.7,711789.8,596431.8,257233,429407.7
291118.4,276551.1,712001.4,534569.6,711787.6,596218.7,257287.5,429311
290777.7,276232.4,711979,533958.4,711764.8,595699.9,256900,428853.4
290757,276219.8,711983.3,533757.8,711768.7,595387.4,256805.1,428616.2
291052.1,276495.8,712004.5,534157.6,711790.2,595350.9,257118.2,428713.5
291146.7,276577.7,712009.4,534333.1,711795.1,595208.1,257272.5,428701
290820.2,276269.4,711986.8,533769.6,711772.2,594712.8,256914.9,428276.1
290717.4,276181.6,711984.4,533442.8,711769.8,594339.8,256731.7,427970.9
290982.5,276432.9,712002.2,533777.8,711788,594271.8,256998,428028.4
291148.1,276584.1,712010.2,534064.6,711796.3,594183.3,257228,428072.1
290852.3,276304.6,711990.2,533580.7,711776.3,593725.8,256929.3,427693
290675.8,276144.6,711982.3,533138.8,711768.4,593303.1,256668.5,427327
290902.4,276357.3,711998.6,533386.7,711785,593197.2,256877.3,427336.2
291137.8,276573.2,712013.8,533764.3,711799.6,593156.1,257171.5,427430.4
290908.9,276356,711996.9,533399.8,711782.7,592759.3,256952.4,427119.3
290663.4,276130.7,711983.4,532869.8,711768.9,592290.4,256626.4,426705.9
290839.9,276297.8,711999.1,533019.1,711784.3,592141.6,256769.3,426665.1
291122,276558.8,712018.2,533450.9,711803.6,592126.2,257104.2,426790.8
290957.1,276399.7,712001.4,533215,711787.6,591782.9,256970.4,426545.9
290659.8,276124.2,711981.1,532623.8,711767.3,591282.6,256601.8,426102.7
290767.7,276229.8,711992.9,532648.4,711778.6,591079.1,256661,425991.9
291078,276522.5,712016.9,533107.3,711802.9,591083,257017,426131.7
291009.3,276452.9,712007.6,533030.6,711793.4,590821.6,256996.7,425978.8
290670.9,276136.3,711984.6,532407.5,711770.5,590303.9,256602.8,425517.2
290711.5,276178.6,711992.3,532307.9,711778.4,590045.3,256577,425341.6
291029.4,276477.1,712016.4,532751.3,711802.4,590042.6,256923.6,425474.8
291066.7,276506.4,712020.1,532833.8,711805.9,589870,257017.2,425418.9
290719.6,276181.1,711995.2,532222.6,711780.9,589354.2,256630,424966.8
290664.8,276135.2,711990.2,531975.8,711775.9,589018.2,256497.5,424703.5
290956.4,276406,712009.7,532364.3,711795.6,588982.4,256798.6,424796.9
291072.6,276510,712016.1,532576.3,711802.1,588862.9,256976.8,424804.7
290753.3,276213.4,711995.4,532036.4,711781.4,588383.9,256636,424393.8
290643.1,276120.8,711994.1,531697,711779.8,588017.9,256446.3,424089.9
290910.9,276374.4,712015.4,532027.6,711801.5,587963.8,256713.6,424155.2
291091,276537.2,712023.4,532338,711809.5,587891.5,256956.2,424216.6
290810.4,276269.8,712003.9,531884.1,711789.9,587452.1,256669.8,423856.3
290614.1,276092.2,711992.5,531422.3,711778.8,587018.9,256388.7,423479.6
290836.3,276305.5,712012.2,531663.2,711798.3,586919.8,256595,423493.1
291067.7,276517.5,712023.7,532048.2,711810,586879.3,256891.3,423588.4
290851.7,276308.4,712007.2,531718.5,711793.7,586501.1,256694.2,423299.5
290595.3,276076.4,711992.3,531175.4,711778.9,586030.7,256357.6,422884.3
290757.1,276231,712007.1,531299.3,711793.8,585877.3,256480.1,422835.4
291033.7,276483.1,712022.2,531732.5,711809.1,585865.7,256810.4,422963.7
290899.7,276352.6,712010.6,531545.8,711797.5,585556.6,256711,422756.7
290596.4,276075.1,711991.9,530949.4,711778.6,585061.1,256337.5,422316.7
290692.1,276170,712000.6,530949.8,711787.1,584852.2,256378.6,422200.2
290998.2,276453.4,712023,531402.8,711809.7,584853.4,256726.7,422341.9
290951.6,276399.7,712017.6,531363.7,711804.4,584613.4,256727.8,422215.8
290615.2,276086.5,711995.6,530750.3,711782.1,584107.9,256338.5,421769.3
290632.5,276110.1,712000,530624.8,711786.8,583841.9,256290.6,421582.2
290938.3,276399.3,712021.1,531057.3,711808.3,583832,256622.1,421707.2
290988.3,276439.1,712023.6,531170.9,711810.5,583673.3,256733.3,421671
290635.8,276105,711997.9,530565.3,711784.9,583164,256343,421223.8
290561.4,276041.5,711993.8,530291.4,711781.1,582824.2,256190.9,420953.6
290856,276316.4,712015.7,530677.4,711802.9,582799.1,256495.1,421059.4
290994.2,276439.4,712024.3,530918.5,711811.4,582702.3,256696.7,421094
290675.4,276138.1,712000.4,530387.6,711787.8,582231.7,256361.2,420696
290533.6,276014,711995.4,530012.4,711782.6,581851.1,256145.1,420374.7
290785.2,276254.7,712016.3,530322.3,711803.1,581788.7,256395.5,420433.6
290986.1,276439.3,712027,530659.3,711813.9,581735.3,256656,420515.1
290719.6,276182,712009.3,530234.8,711796.3,581317.9,256392.4,420179.2
290515.9,275996.3,711998.9,529759.5,711785.6,580889.1,256106.6,419809.2
290717.3,276187.2,712013.4,529962.4,711800.4,580777.8,256285.4,419807
290957.9,276405.8,712024.1,530359.3,711811.1,580748.3,256586.5,419917.2
290763,276219.3,712011.6,530071.2,711798.1,580400.2,256419.8,419664.5
290487.8,275966.8,711996,529512.7,711783.2,579930.8,256073.8,419247.9
290635.7,276111.9,712009.3,529607.4,711796.6,579773.2,256179.5,419187.5
290928.5,276384.1,712028.1,530056.1,711815.4,579778,256523.3,419332.7
290827.9,276284.2,712021.2,529917.3,711809.1,579503.1,256460,419162.1
290495.4,275975.9,711997,529296.6,711784.8,578992.8,256062.1,418706.3
290563.6,276047,712005.6,529260.6,711793.2,578770.8,256073.5,418572
290885.5,276346.9,712029.2,529725,711816.9,578790.5,256430.2,418729.7
290859.9,276316.8,712022.6,529721.3,711810,578577.3,256455.6,418630.4
290507.5,275988.5,711998.4,529098.2,711785.9,578067.8,256056.9,418182.8
290516.2,276002.8,712006.9,528949.5,711794,577805.3,255999,417996.7
290828,276294.8,712030.4,529384.8,711817.6,577808.8,256336.6,418133.6
290889,276345.6,712030.5,529525.1,711817.7,577661.8,256461.9,418110.2
290552.5,276029.2,712008.7,528950.5,711796.5,577178.8,256096.8,417691.4
290459.1,275945.6,712002.5,528647.1,711790.1,576827.1,255924.2,417406.2
290750,276221.5,712023.7,529019.9,711810.8,576803.3,256220.6,417509.3
290897,276352.3,712030.3,529284.3,711817.4,576721.4,256433,417555.7
290586.6,276058.6,712008.3,528777.3,711795.2,576268.3,256111.1,417172.6
290427.9,275918.1,712000.8,528376.3,711788.3,575880.3,255872.5,416842.9
290677.4,276157.3,712023.9,528673.7,711811.6,575824.1,256115.8,416903.3
290891.5,276352,712037.1,529035.3,711825.1,575791.3,256394.1,417003.4
290638.8,276111.8,712017.4,528638.8,711805.6,575393.3,256146.6,416684.6
290408.1,275901.5,712007,528134.8,711795,574956.4,255835.9,416299.1
290581.9,276065.6,712018.1,528301.8,711806.2,574829.1,255982.6,416275.8
290840.4,276300.7,712033,528721.3,711821.1,574823.1,256298.4,416405
290659.5,276124.4,712018.5,528456.9,711806.4,574487.5,256142.1,416163.8
290394,275881.3,712005.1,527902,711792.9,574036,255802,415763.8
290541.2,276025.8,712023.2,527987.8,711810.8,573890.6,255905.2,415710.8
290822.5,276285.7,712037.5,528426.8,711825.8,573887.4,256234.1,415845.2
290724.9,276187.7,712027.2,528309.5,711815.6,573622.5,256180.3,415686.9
290403.1,275887.1,712007.2,527697.8,711795.3,573132.8,255794.9,415248.3
290469.3,275953.8,712016.1,527643.7,711803.8,572915.6,255799.4,415112.1
290766.3,276230.7,712033.4,528082.9,711821.4,572918.3,256132.2,415250.6
290761.7,276222.3,712031.1,528116.1,711818.9,572725.5,256182.5,415174.2
290418,275901.4,712007.2,527505.1,711795.2,572228.6,255791.2,414734.8
290400.7,275891.5,712009.9,527321.6,711798.3,571954.4,255705.5,414530.5
290703.7,276172.9,712031.8,527739.8,711820.3,571956.7,256026.2,414658.1
290798.7,276256.8,712036.9,527922.9,711825.3,571849.8,256185.8,414672.6
290462.4,275942.7,712012.5,527355.4,711800.6,571375.7,255823.8,414264.4
290367.4,275860.1,712009.1,527040.1,711796.9,571035.8,255645.4,413986.5
290654.6,276132.2,712032.3,527406.8,711820.5,571018.5,255935.7,414090.5
290821.6,276281.9,712042.9,527703.3,711830.8,570959.1,256169.3,414162.1
290508.2,275984.2,712018,527208.8,711806.1,570512.1,255850.7,413789.2
290316.4,275812.9,712006.4,526767,711794.4,570105.1,255582.7,413437.7
290549.6,276033.8,712025.1,527034.1,711813.3,570038.4,255803.3,413482.1
290783.8,276246.1,712039.1,527415.3,711827.6,570023.5,256098.6,413600.2
290542.6,276015.3,712021.1,527046.9,711809.9,569646.6,255872.9,413303.5
290297.7,275794.5,712006.4,526527.9,711794.8,569210,255553.4,412917.6
290474.4,275965.4,712020.8,526691.7,711809.7,569097.9,255704.3,412905
290756.3,276225.3,712039.4,527134.4,711827.8,569115.9,256039.2,413057
290602.2,276073.8,712027.6,526913.3,711816,568810.4,255910.4,412844.7
290325.1,275818.2,712014.8,526350.6,711803.1,568359.6,255559.9,412441
290435.9,275928.2,712024.3,526389.3,711812.7,568188.4,255621.1,412356
290718.5,276190.8,712039.8,526826.9,711828.3,568194.3,255948.6,412493.5
290648.5,276121,712034.6,526753.6,711823.5,567963.1,255926.1,412366.9
290313.7,275810.6,712013.3,526140.8,711801.9,567477.1,255534.6,411931.8
290353.3,275852.1,712018.8,526050.8,711807.3,567248.1,255509.4,411778.3
290665.7,276138.5,712039.7,526498.6,711828.1,567266.6,255848,411927.8
290685.3,276149.8,712036.1,526568.9,711824.3,567102.3,255923.5,411878.8
290339.2,275828.1,712011.2,525962.1,711799.1,566612.2,255532.8,411447.1
290304.6,275803.4,712014.5,525752.9,711802.3,566329.6,255425.3,411231.1
290594.7,276070.9,712034.9,526157.8,711823.1,566330,255733.7,411355.3
290703.6,276163.4,712039.8,526368.3,711829,566233.6,255905.8,411382.2
290374.9,275856.8,712018.2,525823.4,711807.3,565777.5,255557.5,410989.9
290269.1,275767.9,712017.4,525495.2,711806.3,565444,255372.3,410712.7
290551.2,276032.5,712039.5,525844.8,711828.4,565423.6,255649.1,410811
290723.6,276187.8,712044.7,526153.5,711834,565371.5,255885.7,410889.5
290416,275896.4,712020.1,525677.6,711809.3,564940.6,255578.4,410530.1
290240.3,275740.2,712013.7,525240.6,711802.6,564555.4,255316.8,410195.3
290467.3,275955.5,712032.8,525490.8,711821.8,564486.4,255523.7,410234.8
290709.8,276174.9,712048.8,525891.1,711837.8,564486.1,255829,410366.2
290487.3,275962.3,712030.1,525560.9,711819.1,564131.3,255628.7,410097.6
290229.8,275729.3,712016.8,525026.8,711805.3,563691.8,255295.3,409707.1
290403,275896.7,712034.9,525173.8,711823.4,563582.1,255434.4,409691.9
290683,276153.4,712052.6,525623,711841.6,563603.8,255772,409848.1
290542.7,276017.1,712037.9,525434,711826.6,563317.1,255664.2,409657.6
290235.8,275733.4,712020.1,524847.3,711808.9,562856.2,255293.8,409242.1
290336.9,275829.6,712030.8,524863.1,711820.2,562681.9,255337.7,409150.5
290632.3,276100.8,712048.3,525313.4,711837.6,562700.4,255672.3,409299.9
290581.5,276050.1,712041.6,525273.8,711831.2,562486.9,255670,409190.6
290246.2,275741.1,712018.9,524666.9,711808.1,562008.4,255281.2,408762.2
290279.5,275780.1,712026.8,524566.9,711816,561786.2,255252.5,408612.3
290590.7,276073.9,712049.4,525014.2,711838.8,561812.8,255593.8,408768.5
290633.8,276107.4,712049.2,525125.1,711838.4,561677.3,255697.8,408749.6
290279.7,275772.5,712023.3,524528.3,711812.4,561199.6,255311,408327.2
290227.6,275732.1,712025.9,524289.1,711814.9,560912.1,255184,408101.6
290521.9,276009.5,712047.9,524684.2,711837.4,560914.1,255486.4,408226.4
290658.4,276132.8,712055.2,524930.2,711844.8,560846.3,255687,408282
290324.6,275817.8,712029.3,524393.1,711818.1,560392.1,255339.4,407893.1
290187.7,275694.8,712023.4,524026.8,711812.4,560038.4,255122.9,407594.6
290449.2,275942,712042.5,524350.1,711831.8,560009.1,255379.7,407678.9
290650.8,276123.6,712054,524694.4,711843.4,559986.4,255645,407785.6
290382.2,275868.1,712036.3,524272.4,711825.5,559595.4,255379.1,407469.6
290169.4,275675.4,712025.5,523802.4,711814.9,559191.6,255090.3,407116.1
290371.6,275866.6,712041.1,524021.6,711830.6,559108.2,255272.2,407138.8
290632.4,276108.3,712059.8,524445.1,711849.3,559127.4,255594.3,407291.7
290431.9,275916.4,712042.7,524147.8,711832.3,558798.4,255415.7,407048.8
290162.5,275672.2,712027.9,523602.8,711817.6,558362.1,255076,406658.6
290319,275825.4,712043.6,523722.3,711833.2,558244.3,255194.1,406630.7
290610.3,276092.3,712062.1,524183.6,711852.3,558280.4,255540.2,406800.5
290485.2,275967.1,712050.7,524027.1,711840.4,558015.5,255454.2,406631.7
290158.8,275664.3,712028.6,523419.8,711818,557541.1,255062.5,406202.5
290233.1,275739.9,712034.4,523397.4,711824.3,557353.5,255080.9,406091.4
290531.2,276015.7,712053.8,523852,711843.9,557385,255419.9,406250.9
290508.4,275988.1,712049.8,523857.7,711840,557204.3,255450.3,406177.6
290164,275668.8,712027.2,523246.4,711817.4,556728,255057.3,405752.8
290162.2,275672.9,712030.5,523098.4,711820.3,556479.1,254990,405572.6
290478.6,275968.3,712054.1,523544.3,711844,556512.4,255327.4,405730.4
290527.2,276003.6,712050.6,523670.7,711840.9,556379.3,255431.8,405712.8
290189,275686,712027.3,523090.9,711817.4,555919.1,255056.9,405308.3
290131.3,275639.1,712031.1,522835.9,711821.1,555635.4,254921.9,405084.7
290424.1,275915.7,712054.6,523228.1,711844.9,555646.6,255224.6,405215.2
290564.6,276041.7,712058.4,523492.2,711848.8,555585.7,255429.2,405277.1
290247.6,275742.9,712035.3,522980.9,711825.3,555156,255101,404912.3
290089.2,275600.8,712027.6,522582.2,711817.6,554791.9,254859.9,404599.1
290339.3,275838.1,712046.4,522884.1,711836.5,554756.1,255097.6,404674
290558.8,276040.2,712058.5,523251.2,711848.6,554750.1,255376.3,404796.6
290293.8,275789.6,712037.1,522845.4,711827.4,554366.1,255116.8,404487.6
290065.9,275582.4,712026,522352.1,711816.4,553957,254810,404124.6
290272.2,275780.9,712045.3,522567.1,711835.8,553887.5,254992.8,404154.7
290536.8,276025.4,712060.4,523002.7,711851.4,553914.1,255319.5,404312.8
290364.2,275860.2,712046.7,522746.3,711837.8,553612.1,255166.6,404096.7
290067,275587,712029.3,522171.1,711819.4,553159,254797.7,403688.5
290198.4,275714.8,712044.1,522256,711834.5,553025.9,254888.4,403642.5
290493,275984.8,712061.5,522713.8,711852.5,553062.3,255230,403809.3
290391.1,275882,712049.6,522593.1,711840.4,552817.6,255166.8,403661
290064.9,275579.7,712030.4,521991.4,711821.6,552355.1,254782.7,403243.5
290128.3,275642.2,712037.5,521947.6,711828.5,552163.2,254784.4,403124.9
290449.8,275943.1,712059.8,522418.5,711850.9,552214.9,255139.1,403304.6
290440.4,275927.3,712057.9,522452,711849.3,552051.3,255186.6,403247.8
290089.7,275599.1,712034.3,521843.1,711825.3,551581.7,254792.8,402829.3
290072.4,275588.3,712036.6,521668.2,711827.4,551327.5,254705.8,402641.1
290383.6,275877.2,712060.8,522106.3,711851.4,551361.9,255037.7,402797.9
290468.9,275952.7,712065.9,522290.2,711856.9,551274.3,255188.6,402823.7
290121.6,275624.8,712038.9,521715.8,711829.9,550812.6,254810,402418.4
290025,275542.4,712037.5,521415.6,711828.8,550499.2,254637.6,402163.4
290292.8,275793.6,712055.9,521775.8,711846.9,550489.4,254914.2,402270.7
290457.3,275943.8,712063.7,522069.4,711854.8,550453.4,255144.8,402356.1
290139.3,275643,712038.4,521569.9,711829.4,550026.2,254820.5,401995.8
289964.1,275487.6,712029.9,521151,711820.9,549655.3,254561.5,401673.7
290217.6,275729.6,712052.1,521447.4,711843,549629.9,254798.5,401753.2
290459.2,275953.8,712069.7,521847.5,711860.8,549653.3,255105.2,401904
290218.6,275723.2,712050.3,521478.2,711841.3,549299.7,254875.8,401626.4
289970.8,275495,712034.4,520957,711825.4,548880.2,254547.1,401249.7
290155,275669.8,712050.4,521128.3,711841.8,548791.3,254695.7,401253.4
290426.4,275921.4,712066.9,521568.3,711858.4,548825.6,255025.5,401415.3
290249.5,275750.2,712050.1,521328,711841.7,548528.6,254879.3,401204.1
289960.3,275482,712034.5,520753.3,711825.8,548085.6,254514.5,400805.9
290092.8,275611.7,712047.1,520817.8,711838.6,547956.4,254596.6,400758
290392,275888.8,712065,521282.4,711856.3,548006.5,254945.4,400931.1
290309.3,275806.9,712056.8,521200,711847.7,547793.3,254913.3,400810.3
289983.3,275503.9,712040.7,520603,711831.8,547346.8,254535,400407
290030,275554.3,712046.9,520532.9,711838.1,547151,254519.9,400281.2
290345.4,275852,712068.4,520992.5,711859.4,547201.8,254866.5,400455
290356.7,275860.1,712065.8,521060.8,711856.9,547061.3,254938.1,400419.9
290000.6,275525.2,712041.1,520454,711832.4,546592.7,254544.6,400002.3
289960.2,275494,712040.6,520245,711831.8,546325.3,254432.7,399794.8
290268.5,275785,712061.8,520671.5,711853.3,546361.8,254756.1,399947.5
290377.8,275879.5,712067.2,520889.8,711858.8,546297.1,254931.3,399998.3
290047.5,275566.6,712046.1,520345.8,711837.5,545863,254581.1,399624.7
289925.5,275458.3,712037.6,520010.2,711828.7,545534.8,254379.9,399350.5
290201.8,275718.7,712058.2,520369.4,711849.3,545538.7,254658.7,399464.4
290381.9,275882,712066.9,520694.3,711858.7,545521.8,254905.2,399567.1
290090.2,275604.3,712047.1,520236.7,711838.6,545127.9,254609,399239.2
289905.6,275437.8,712039.7,519805.9,711830.9,544762.8,254344.5,398920.8
290141.9,275664.2,712058.5,520080.3,711849.6,544729.8,254565.9,398988
290395.9,275898,712075.6,520502.1,711866.6,544769.3,254885.7,399149.5
290156.9,275666.1,712054.8,520155.1,711846.3,544424.3,254661.6,398878.3
289900.9,275430.3,712040.6,519623.7,711832.4,544008.1,254324.2,398503.4
290067.2,275592,712052.1,519772.8,711843.6,543910.4,254457,398497.3
290351.7,275855.1,712067.8,520228.7,711858.9,543958.7,254799.9,398674.1
290208.7,275713.5,712055.9,520037.8,711847.5,543697.6,254690.5,398500.8
289902,275429.4,712038.4,519452,711829.9,543253.6,254312.3,398098.4
290014,275540.1,712051.3,519490.2,711842.6,543114.3,254371.3,398040.7
290321.6,275824.8,712069.1,519962.8,711861,543168.7,254720.6,398222.9
290268.8,275768.6,712062.6,519925,711854.8,542980.3,254716.6,398134.1
289924.4,275444.5,712039.8,519308.2,711832.1,542515.9,254314.6,397714.4
289961.9,275486.1,712047.5,519215.9,711839.6,542317.3,254285.4,397583.6
290277.6,275776.7,712069.9,519677.5,711861.9,542373.8,254633.7,397763.3
290310.6,275797.8,712066.1,519778.3,711858.3,542250.3,254724.7,397748.5
289963.1,275472,712043.8,519185.8,711835.8,541801.1,254338.2,397347.7
289917.7,275436.1,712046.5,518959.8,711837.9,541537.8,254214,397140.1
290212.9,275713.7,712066.2,519368.1,711857.5,541565.4,254521.5,397283.4
290333.2,275823.3,712069.9,519605.8,711861.9,541512.2,254708.4,397347.3
290002.7,275511.1,712045.8,519070.2,711837.6,541086.6,254362.2,396980.9
289865.5,275389.7,712041.1,518709.6,711832.8,540758,254147.3,396701.9
290140.5,275650.8,712064.6,519057.3,711856.1,540766.7,254419.5,396821.4
290343.6,275837,712077.4,519411.2,711869.2,540775.6,254691.2,396953.8
290056.5,275564.8,712056.9,518971.2,711848.9,540396.8,254407.7,396642.4
289848.8,275378.1,712047.8,518502.3,711839.9,540017.6,254115.4,396306.6
290069.4,275590.2,712067.1,518745.8,711859.1,539975.7,254313.8,396363.3
290324.9,275824.2,712081.8,519170.3,711873.3,540015.8,254631.9,396529.4
290093.8,275598.9,712062.5,518842.8,711854.4,539685.7,254425,396276.9
289812.7,275341.6,712046.7,518281,711838.2,539256.9,254067.9,395889.7
289973,275498.6,712060.3,518408.2,711852.1,539160.7,254186.4,395880.9
290258.3,275763.2,712075.8,518865.7,711867.8,539212,254526.3,396060.3
290120.3,275628.4,712065.2,518696.3,711857.3,538964.3,254430.6,395899.3
289805,275336,712046.7,518092.8,711838.8,538518.6,254042.6,395491.5
289896.6,275425.6,712055.6,518090.5,711847.8,538363.4,254072.2,395409.8
290211.9,275717.8,712074.9,518568,711866.7,538427.4,254426,395597.7
290179.2,275679.6,712071.6,518567.5,711863.1,538264.8,254450,395534.3
289832.9,275355,712050.5,517950.4,711841.9,537808.6,254050.9,395122.4
289841.8,275367.3,712053.8,517815.1,711845.6,537587.9,253986.3,394965.9
290166.8,275674.4,712080.7,518285.2,711872.7,537658.9,254339.3,395155.5
290230.1,275729.7,712082.7,518437.5,711874.4,537571.4,254464.3,395175.4
289889.5,275412,712058.9,517855.6,711850.9,537127.8,254084,394784.2
289835.2,275366.9,712060.9,517609.1,711852.9,536863.8,253949.4,394575.4
290101.9,275614,712071.4,517982.9,711863.4,536863.7,254224.5,394690.5
290236.9,275732.3,712074.6,518251.9,711866.6,536824.8,254429.3,394767.7
289919.4,275430.2,712054.4,517743.4,711846.4,536419.9,254098.7,394418.3
289773.2,275299.9,712049.8,517364.5,711841.7,536091.3,253868.5,394132.1
290043.7,275558.1,712071.1,517697.9,711863.4,536098.5,254130,394241.5
290263.7,275759.3,712082.4,518081.5,711875.2,536124.6,254419.5,394386.2
289990.3,275498.7,712059.9,517674.8,711852.1,535761.8,254156,394093.4
289757.8,275288,712046.4,517183,711838.6,535370.7,253843.8,393745
289965.4,275485,712064.6,517409.7,711856.6,535327.1,254030.5,393791.8
290243.9,275743.8,712080.4,517870.6,711872.2,535393,254374.3,393979.1
290063.8,275570.9,712066.2,517618.4,711858.1,535117.9,254222.7,393781.3
289764.8,275294.2,712049.3,517048.3,711841.4,534690.1,253853.6,393390.4
289908.1,275432.4,712065.8,517160.1,711857.9,534595.8,253960.9,393374.7
290207.1,275710.6,712083.8,517643.5,711876.4,534667.4,254315.8,393567.2
290103.4,275608.1,712075.8,517532,711868.3,534456.3,254259.1,393445.1
289771.7,275299.1,712055.3,516924.3,711847.2,534010.1,253867.2,393039.6
289841.2,275366.7,712061.4,516894,711854,533840.9,253874.3,392941.3
290174.3,275675.4,712087.4,517394.3,711880.2,533929.1,254246.6,393149.9
290155.6,275652.7,712082.2,517427.3,711875,533783.8,254287.1,393103.2
289792.9,275311.6,712056.1,516805.5,711848.8,533324.6,253878.5,392688.3
289782,275309.7,712059.4,516648.8,711852.3,533101.1,253800.6,392523.4
290094.7,275606.1,712081.3,517106.4,711873.9,533163,254139.4,392702.4
290180.3,275679.8,712085.3,517295.5,711878,533099.8,254294.3,392747.5
289841.4,275359.9,712063.3,516728.1,711856,532674.4,253926.4,392370
289747.9,275281.1,712058.5,516429.5,711851.5,532379.3,253748.5,392125.3
290047.5,275562,712080.5,516831.8,711873.7,532421.4,254055.5,392278.6
290217.7,275715.4,712089.1,517143.7,711882.4,532420.6,254295.9,392392
289890.8,275407,712065.9,516640.4,711859.2,532016,253966.8,392044.8
289716.4,275252.4,712058.8,516229.4,711851.3,531670.3,253712.1,391742
289973.8,275495.5,712080.9,516547.5,711873.7,531675,253961,391848.1
290211.1,275714.7,712095.1,516953,711887.7,531718.2,254267.6,392010.1
289952.6,275469.6,712072.9,516573.8,711865.4,531377.1,254026,391738.1
289702,275236.8,712056.7,516058,711849.4,530978.8,253694.9,391378.9
289902.5,275426.3,712073.3,516260.4,711865.9,530929.3,253866.6,391418.4
290196.9,275700,712094.3,516737.8,711887.1,531009.9,254223.2,391620.8
290020,275528.8,712078.7,516503.2,711872,530741.4,254079.8,391431.4
289716.3,275247.3,712058.8,515916.6,711851.9,530311.7,253701.1,391038.1
289842.6,275368,712070.2,515988.3,711863.3,530194.5,253777.6,390999
290156.2,275661.7,712089.9,516482.1,711883.3,530278.7,254143.3,391206
290074.2,275577.7,712081.8,516405.3,711875,530089.4,254110.7,391107.6
289745.6,275269.2,712063.4,515801.2,711856.3,529659.8,253724.1,390716.5
289793.8,275321.4,712070.2,515740.1,711863.1,529487.9,253711.6,390609.6
290108,275613.8,712089.6,516217.7,711882.5,529565.5,254066.4,390803.1
290110.7,275611,712083.8,516282.5,711876.8,529440.5,254132.6,390776.9
289757.9,275277.3,712061.7,515673,711854.4,528999.1,253738.1,390379
289739.5,275267.2,712067.2,515491.3,711860,528777.5,253648.1,390212.2
290042.6,275552.9,712086.8,515927.7,711879.9,528833,253973.9,390381.2
290138.3,275636.8,712088.8,516138.7,711882.2,528777.8,254140.3,390436.1
289802.2,275320.3,712069.5,515589.8,711862.7,528366.9,253787.3,390077.1
289700.2,275230.7,712066.7,515276.9,711859.8,528081.4,253604.4,389839
289978.2,275494.3,712085.1,515648.6,711878.3,528112,253887.6,389974.4
290152,275653.6,712095.4,515977.3,711888.5,528121.6,254137.4,390097.8
289845.3,275361.7,712074.3,515507.8,711867.5,527745.6,253833.8,389780.2
289652.7,275187,712062.8,515068.1,711856.1,527392.8,253558.7,389466.6
289893.8,275417.2,712080.1,515355.8,711873.4,527386.2,253787,389554.5
290137.9,275646.3,712093.8,515775.4,711887.3,527438.7,254101.2,389725.4
289893.6,275411.2,712073.7,515427.7,711867.4,527118.1,253880.2,389474.6
289633.4,275168.7,712058.9,514899.2,711852.6,526722.4,253542.5,389117.2
289823.4,275349,712077.5,515081,711871,526670.4,253700.1,389151.4
290115,275617.2,712094.9,515555.9,711888.4,526751.4,254051.8,389352
289952.8,275457.9,712079.8,515350.8,711873.5,526502.6,253924.2,389178.8
289643.1,275172.2,712062.9,514765.3,711856.4,526083.3,253547.3,388790.8
289752.5,275282.4,712073.5,514815.2,711866.8,525963.9,253608.8,388746.1
290067,275575.1,712095.1,515310.7,711888.8,526055.1,253971.8,388956.4
290020.6,275525.2,712091.6,515281.8,711885.1,525901.4,253976.5,388891.3
289659.9,275187.2,712065.6,514653.3,711859.1,525449.2,253563.4,388476.1
289683.9,275218.3,712071.2,514559.3,711864.8,525263.3,253528.3,388354.5
290001.5,275516.7,712093.4,515034.4,711886.8,525345.1,253884.8,388553.4
290029.4,275537.3,712089.3,515136.5,711883.1,525241.3,253975.5,388553.7
289687.1,275217.1,712069.1,514547.8,711862.9,524817.8,253598.4,388176.9
289641,275177.1,712070.3,514329,711864,524582.1,253482.7,387990.6
289946.8,275462.5,712090.8,514761.1,711884.4,524647.9,253807.7,388164.3
290068.7,275570.7,712096.1,515007.8,711890.3,524621.1,253999.3,388245.4
289735,275255.1,712074.3,514470.8,711868.4,524217.8,253649.6,387890.7
289608.5,275142.3,712071.7,514126.2,711865.2,523920.1,253442.3,387634.5
289882.5,275399.1,712093.2,514481.9,711886.9,523949.2,253716,387765.1
290068.8,275566.3,712102.5,514831.2,711896.9,523967.5,253974.7,387895.6
289776.8,275285.7,712079.8,514388.2,711873.9,523604.3,253686.6,387591
289572.6,275101.1,712070,513930,711864,523253.1,253401.2,387274.9
289808.6,275330.4,712092.1,514203.3,711886,523255.2,253621.5,387366.9
290064.2,275569,712105.4,514641.4,711899.6,523322.4,253946.2,387551.8
289841.6,275355.9,712085.8,514326.3,711880.1,523021.1,253747.6,387321.6
289556.7,275096.1,712069.8,513767.8,711863.6,522614.9,253389.5,386948.4
289723.1,275259.5,712084.4,513912.3,711878.3,522551.3,253520.9,386963.8
290022.7,275539.8,712103.8,514397.6,711898.1,522645.5,253880.3,387175.1
289890,275408.4,712092.9,514240.6,711887.1,522429.8,253791.5,387038.3
289551.8,275093.7,712069.3,513626.9,711863.4,521991.8,253389,386632.7
289646.5,275186.9,712077.7,513642.3,711871.6,521864,253428.7,386571.4
289969.7,275486.3,712097.4,514132.7,711891.1,521956.1,253792.1,386778.9
289930,275441.1,712091.1,514126.3,711884.9,521809.9,253805.9,386723.2
289580.2,275111.7,712070.4,513512.4,711864.3,521379.6,253404.3,386327.4
289586.8,275122.2,712074.1,513381.5,711868.3,521184.8,253339.9,386185.7
289917.6,275433.3,712098.8,513862.4,711892.8,521281.6,253699.3,386392.8
289986.3,275492.5,712101.1,514016.8,711894.9,521217.6,253828.4,386429.6
289623.3,275153.2,712073.3,513415.9,711867.3,520784,253431.1,386036.6
289544.6,275088.2,712071.6,513156.6,711865.4,520530.3,253281,385828.3
289854.2,275382.2,712096.5,513583.8,711890.7,520603.6,253603.5,386006.3
289996.3,275511.3,712102.5,513863.1,711896.8,520599.3,253815.5,386107.2
289667.3,275198.1,712078.6,513340.3,711872.9,520206,253471.6,385761.7
289517.1,275063.6,712072.3,512963.2,711866.3,519897.2,253241.1,385491.3
289786.4,275318.6,712091.1,513303.7,711884.9,519928.6,253504.2,385618.4
290003.4,275516.4,712102.4,513684,711896.6,519973,253787.4,385772.2
289723.6,275249.8,712082.2,513267.9,711876.3,519632.8,253517.2,385489.9
289499.2,275043.9,712071.9,512784.2,711866.1,519277,253215.1,385167.8
289716.5,275250.1,712090.9,513021.7,711885.1,519260.8,253408.4,385237.8
289994.9,275506.6,712106.8,513477,711900.9,519343.2,253744.5,385434.1
289801,275317.5,712090.9,513205.8,711884.7,519078.1,253576.8,385238.1
289503.8,275041.3,712071.1,512632.5,711865.3,518671.4,253203.5,384860.1
289651.3,275182.6,712084.9,512747.8,711879.5,518595.6,253308.8,384856.3
289959.1,275470,712104,513242.8,711898.7,518694.4,253670.2,385069.9
289858.7,275371.5,712096.2,513134.9,711890.5,518511.5,253619.4,384966.3
289516.8,275051.5,712072.8,512517.1,711867.8,518083.9,253215.2,384566.6
289599.8,275136.4,712085.1,512510.2,711880.2,517959.6,253238,384502.7
289936.8,275452.5,712110.2,513024.8,711905.1,518079.6,253618,384734.1
289905.8,275417.4,712101.6,513049.4,711896.1,517945.7,253647.3,384692.2
289542.6,275074.6,712077.8,512430.7,711872.3,517512.5,253240.1,384296
289553.6,275091.2,712084.4,512297.9,711878.4,517332.8,253180.8,384169.9
289875,275394.9,712106.1,512769.3,711900.4,517427.7,253528.7,384372.7
289948.5,275458.3,712106.3,512948.3,711900.9,517375.8,253669.8,384419.2
289590.5,275119.8,712079.8,512365.6,711874.1,516957.3,253284.6,384042.7
289500.3,275038.5,712077.1,512082.7,711871.4,516696.9,253117.9,383824.8
289808.4,275330.5,712100.6,512502.6,711895.1,516770.3,253433.6,384001.5
289981.7,275488.3,712110.9,512829.2,711905.4,516799.4,253681.3,384138.3
289664.4,275185.7,712089.7,512336.5,711884.4,516430,253359.1,383820.2
289493.3,275032.1,712084.5,511931.8,711879.1,516113.9,253106.2,383540.6
289756.3,275284.9,712105.3,512260,711899.8,516145.3,253359.5,383665.8
289983.7,275494.5,712115.5,512664.5,711910.1,516202.7,253657.1,383834.6
289710.2,275231,712092.9,512273.5,711887.4,515877.1,253404.6,383569.4
289465.3,275009,712080.6,511763,711875.4,515512.3,253084.4,383233.5
289664.2,275199.1,712095.7,511969,711890.8,515482.5,253253,383284.3
289955.5,275467.8,712112.4,512447.7,711907.4,515582,253603.3,383497
289776.7,275292.9,712097.4,512216.5,711892.6,515337,253461.8,383323
289480.1,275019.6,712082,511649.8,711876.6,514948.7,253102.8,382959.9
289607.6,275146.6,712095.3,511735.9,711889.9,514864.8,253187.5,382943.4
289940,275457.4,712119.8,512256.8,711914.8,514990.5,253570.8,383182.3
289839.9,275357.4,712107.3,512169.9,711902.2,514811.2,253524.6,383083.6
289487.4,275031,712082.3,511547.2,711877.5,514384.7,253118.4,382687.4
289545.5,275092.4,712090.1,511504.3,711885.5,514244.7,253118.4,382605
289885.3,275406.9,712114,512017.1,711909.6,514367.6,253496.7,382836.6
289891,275402.4,712109.1,512091.4,711904.3,514269.3,253563.7,382828.3
289528.5,275064.9,712084.1,511483.3,711879.1,513850.8,253164,382444.2
289505,275052.8,712085.6,511306.3,711880.8,513650,253069.8,382286.6
289835.4,275366,712110.3,511779.5,711905.3,513756.4,253420.5,382490.9
289946.3,275463.5,712117.6,512010.8,711912.1,513745.5,253600.1,382575.7
289600.8,275133.8,712094.3,511448.9,711889.3,513351,253233.8,382221.1
289486.8,275032.9,712089.3,511131.8,711884.4,513080.8,253042.3,381988
289784.5,275314.8,712110.3,511532.3,711905.4,513152.3,253343.5,382156.1
289973.6,275487.8,712120.9,511879.8,711915.9,513197.9,253605,382303.9
289660.4,275189.3,712098.6,511401.2,711893.4,512841.4,253293.2,381995.5
289471.1,275013.9,712088,510968.5,711882.5,512516.3,253021,381700
289719.8,275245.9,712103.6,511269.4,711898.8,512533.8,253247.6,381804.1
289980.7,275483.8,712119,511714,711914.4,512624.8,253574.2,382003.7
289736.9,275251.3,712100.6,511368.6,711896.1,512333.2,253356.9,381772.7
289466.5,275003.5,712086.6,510838,711881.8,511963.6,253022.1,381428.2
289652.3,275183,712101.9,511023.8,711897.1,511932.1,253174.3,381469.6
289954.7,275466.9,712121.2,511520.1,711916,512043.7,253535.1,381693.6
289796.6,275314,712109.2,511321.8,711904,511825.6,253420,381548.3
289467.4,275005.7,712088.7,510712.8,711883.4,511409.4,253023.5,381161.9
289583,275120.3,712099.6,510771.2,711894.5,511314.8,253090.1,381138.2
289913.9,275427.5,712122.5,511290.5,711917.3,511437.3,253469.1,381376.5
289836.3,275344.5,712111.1,511238.9,711906.1,511280,253447.3,381302.4
289479.5,275010.8,712090.3,510609.5,711885.3,510860.2,253039.2,380911.8
289512.2,275048.8,712096.3,510526.7,711891.6,510705.5,253010.5,380813.8
289838,275355.9,712116.1,511015.1,711911.7,510809.6,253366.1,381029.8
289866.8,275375.8,712113,511123.4,711908.4,510731.8,253458.6,381047.7
289492.1,275023.7,712090.5,510501.6,711885.8,510309.1,253052.9,380662
289437.8,274978.8,712093.1,510276.8,711888.4,510090.1,252926.5,380484.8
289757.2,275276.8,712116.3,510726.8,711911.7,510182.5,253258.1,380681.3
289881.9,275388.8,712120.1,510980.4,711915.7,510179.1,253449.7,380780.6
289526.4,275053.2,712094.3,510417.2,711889.9,509779.2,253077.3,380426.1
289378.6,274919.6,712085.8,510051.1,711881.1,509479.1,252846,380163.2
289667.3,275193.3,712109.9,510434.1,711904.8,509543.7,253134.4,380323.3
289881,275388.3,712124.1,510816.6,711919,509609.7,253421.8,380497.7
289560.5,275084.6,712099.3,510347.9,711894.1,509254.7,253114.6,380195.4
289329.4,274875.4,712086.6,509859.8,711881.6,508898.9,252800.9,379870.1
289569.5,275106,712105.7,510133.4,711900.8,508908.4,253013.8,379965
289848.6,275368.2,712123.8,510597.1,711919.3,509013.1,253356,380181.2
289605.5,275138.5,712105.7,510264.8,711901.6,508726.4,253141,379954.5
289312.7,274865.7,712090.7,509693.2,711886.3,508336.6,252771.2,379588.8
289489.5,275036.5,712105.7,509847.4,711901.6,508291.1,252901.3,379615.3
289802.5,275330.2,712126.2,510354.5,711922.1,508412.4,253271.4,379846.5
289646.3,275178.2,712111.1,510170.8,711907,508194.1,253157.9,379703.5
289300.3,274857.9,712090.9,509539.9,711886.6,507773.3,252745.3,379308.9
289383.5,274943.5,712100.5,509547.1,711896.3,507656.4,252771.7,379250.9
289709.8,275251.8,712121.8,510058.5,711917.3,507773.6,253141,379478
289664.1,275206.5,712116.8,510053.5,711912.3,507645.6,253153.5,379435.5
289273.5,274840.3,712090.7,509388.7,711886.3,507197.1,252709.7,379016.8
289280.1,274852.5,712094.8,509255.5,711890.1,507011.6,252639.1,378880.5
289618.4,275170.4,712117.9,509750.8,711913.6,507122.7,252999.8,379096.9
289677.6,275220.6,712121.4,509903.4,711917.7,507073.2,253121.9,379139.2
289292.5,274859.5,712096.8,509273.7,711892.6,506641.6,252702.1,378743.7
289208.6,274790.8,712093.8,508995,711889.6,506384.1,252533.2,378529.8
289533.3,275102.3,712117.8,509439.9,711913.4,506474.5,252863.8,378719.5
289673.2,275229.9,712123.6,509720.8,711919.1,506477.8,253071.6,378821.5
289312.9,274891.6,712096.9,509156.9,711892.6,506072.8,252697.9,378460.8
289149.4,274745.9,712090.3,508752.1,711885.8,505759.9,252445,378181.7
289432.8,275018.8,712112.4,509110.4,711908.4,505813.3,252712.5,378319.8
289656.9,275226.6,712124.4,509510.8,711920.4,505879.7,253000.9,378485.8
289355.8,274940.5,712102.6,509066.6,711898.3,505535.3,252709,378194.3
289107.6,274714.2,712092.3,508547.9,711888.2,505167.4,252376.1,377854.8
289339.7,274937.1,712112.1,508801.8,711907.6,505169.4,252576.3,377937
289630.3,275206.8,712127.5,509280.4,711923.1,505275.4,252923.3,378149.2
289408.6,274993.3,712112.1,508978.9,711907.6,505004.3,252727.9,377935.8
289077.4,274685.9,712090.4,508358.4,711886.2,504576.9,252316,377529.6
289234.6,274841.8,712104.2,508475.9,711899.9,504504.8,252418.2,377527.1
289566.2,275155,712125.9,508998.4,711921.5,504627.1,252798.5,377760.1
289439.4,275032.3,712114.8,508858.8,711910.3,504430.8,252716,377635.8
289077.2,274693,712095.6,508206.9,711890.9,503997.3,252287.5,377225.4
289146.6,274764.3,712103,508178.4,711898.3,503858.3,252287.9,377141
289486.2,275083.9,712122.9,508700.2,711919,503975.3,252663.1,377364.6
289461.7,275055.2,712115.8,508723.8,711911.9,503851.8,252687.9,377325.8
289067.4,274682.3,712088.9,508048.8,711884.9,503393.6,252231.7,376896.8
289059.1,274681.6,712092.4,507881.6,711888.2,503189.6,252138.4,376741
289414.6,275020.6,712119.9,508395.9,711916,503313.5,252517.1,376968.3
289481.6,275078.3,712117.5,508577.1,711913.4,503263.4,252652.6,377013
289096.8,274713,712093.9,507951,711889.8,502834.3,252234.2,376620.9
288993.8,274624.1,712093,507633.7,711889.5,502561.8,252037.7,376385.2
289308.9,274927.3,712117.8,508065.1,711913.6,502641,252355.6,376558.6
289481.5,275086.7,712122.8,508388.8,711918.9,502663.5,252591.5,376681.4
289123,274746,712096.1,507834.6,711892.2,502259.9,252217.6,376319.5
288933.9,274572.3,712088.7,507390.3,711884.9,501924.4,251931.3,376013.4
289214.3,274841.3,712111.4,507741.3,711906.9,501964.1,252191.6,376142.3
289470.8,275082.8,712126.1,508189.2,711921.9,502048.7,252516.7,376333.1
289182.5,274806.5,712105.4,507775.6,711901.7,501718.4,252244.3,376053.5
288913.2,274554.2,712090.9,507220.2,711887.2,501327.5,251881.4,375688
289136.9,274770.4,712109.4,507457.2,711905.1,501316.9,252068.1,375754
289454.5,275072.8,712129.8,507984.5,711926,501446.3,252450.7,375989.1
289257.8,274881.7,712113.6,507729.2,711910.1,501193,252282.7,375797.2
288925.9,274569.1,712092.3,507103.9,711888.6,500770.1,251865.7,375393.5
289078.6,274718.5,712106.4,507211.9,711902.8,500700.7,251961.2,375385.3
289436,275052.9,712127,507778.3,711923.2,500846.5,252366.9,375636.6
289348.1,274963.3,712118.9,507710.8,711915.4,500686.8,252329.7,375550.3
288969.4,274601.8,712095.9,507050.9,711892.2,500240.8,251885.2,375128
289054.9,274684.2,712109.9,507035.3,711906.1,500121.9,251896.8,375060.6
289436.5,275045.1,712136.1,507611.9,711932,500282.4,252314.5,375324.5
289432.8,275033.7,712123.8,507687.4,711920.2,500182.7,252372.6,375308
289037.5,274655.2,712097.2,507025.9,711893.2,499740.9,251927.9,374893.7
289008.9,274632.2,712102.6,506835.6,711898.4,499535.2,251817.8,374730
289373.4,274981.3,712127.3,507357.1,711923.6,499663.8,252198.5,374959.8
289484.4,275080.5,712128.5,507607.3,711924.9,499657.1,252385.1,375046.8
289095.2,274706.2,712099.9,506989.2,711896.1,499231.3,251967.2,374654.3
288974.8,274596.9,712097,506650.3,711893.5,498955.3,251753.7,374408.8
289303,274913.2,712122.7,507099.8,711919.1,499056.4,252089.8,374602.6
289515.7,275110.3,712134.8,507493.5,711931.7,499126.5,252382,374776.1
289171.9,274780.3,712108.8,506976.6,711905.3,498748.7,252034.2,374445
288950.9,274574.6,712096.9,506492.9,711893.5,498395.1,251717.1,374119
289214.1,274828.8,712116.1,506819.7,711912.4,498425.3,251963.5,374236.1
289500.5,275104,712134.9,507316.4,711931.4,498547.1,252327.8,374465.9
289231.5,274846.4,712117.4,506941.5,711913.8,498245.6,252080.7,374217.8
288929.5,274562.5,712098.7,506349.5,711895.1,497840.3,251687.5,373833.2
289129.8,274759.6,712113.8,506555,711910.1,497815.7,251848.3,373882.8
289481.3,275094.4,712139.5,507126.5,711935.9,497979.8,252271.2,374156.4
289298.6,274914.5,712123.3,506909.3,711919.3,497752.3,252135.6,373991.1
288935.9,274568.2,712097.9,506238.5,711893.9,497307.8,251686.7,373564.1
289065.4,274694.8,712112.7,506309,711908.6,497229.3,251759.4,373543.8
289432.3,275046.5,712137.6,506893.4,711933.9,497395.4,252189.5,373818.7
289350.6,274964.4,712125,506847.3,711921.7,497247,252169.5,373745.9
288962.8,274596.9,712103.8,506168.6,711900.4,496807.9,251713.9,373322.5
289002.6,274643,712112.2,506086.7,711908.8,496660.3,251679.8,373218.2
289365.4,274991.4,712135.4,506642.5,711932.1,496809,252085.6,373469.2
289385.2,275003.2,712128.6,506761.4,711925.4,496735.3,252178.4,373481.2
288990.1,274623.9,712105,506100.9,711901.4,496301.8,251734.6,373070.1
288945,274585.7,712109.7,505877,711906.3,496090.8,251602.7,372895.6
289299,274924.2,712131.8,506387,711928.3,496218.4,251976.2,373120.8
289437.8,275048.7,712135.4,506680.2,711932,496237.9,252196.4,373236.3
289054.1,274681.8,712111.3,506081.4,711907.8,495827.3,251791.3,372859.5
288902.9,274542.9,712105.6,505698.3,711902,495529.5,251541.5,372588.8
289226.1,274853.1,712129,506132.8,711925.6,495626.3,251867,372770.8
289465.5,275077.5,712140.4,506570.7,711937,495726.9,252191,372968.3
289149.6,274770.3,712118.4,506095.5,711914.9,495383.8,251873.2,372667.4
288911.3,274545,712106.3,505586.5,711902.5,495025.9,251537,372331.6
289166.6,274792,712122.9,505895.9,711919.1,495053.3,251767,372436.7
289477.6,275082.1,712140.8,506429.8,711937.4,495200.2,252159.1,372687.5
289240.8,274849.7,712125,506109.7,711922.3,494937.2,251951.8,372476.6
288910.7,274532.8,712104.7,505488.8,711901.7,494522.9,251534.1,372075.8
289110.2,274726.1,712121.5,505680.6,711918.5,494508.1,251692.1,372125.4
289488.9,275084.6,712147.3,506287.3,711944.5,494705.5,252143.7,372429.7
289329.6,274922.7,712131.8,506117.5,711929.3,494509.5,252037.9,372296
288949.2,274556.3,712108.2,505441.7,711905.7,494072.1,251582.4,371872
289070,274677.1,712122.7,505493.8,711919.9,494000.5,251647.7,371852.1
289437.6,275029.7,712145.5,506081.8,711942.6,494175.5,252079.8,372126.6
289392.9,274979.3,712135.9,506093.6,711933.3,494070.2,252103.5,372093.7
288983.5,274581.9,712109.6,505398.7,711906.6,493623.7,251633.6,371664.5
289016.1,274615.9,712119.3,505295.1,711916,493479.7,251587.3,371560.3
289391.8,274979,712144.8,505860.8,711941.8,493649.2,252006.5,371824.8
289447.4,275029.7,712141.3,506039.4,711938.3,493625.3,252147.3,371881.9
289038.6,274635.7,712113.3,505382,711910.2,493199.1,251701.1,371477.3
288958.2,274561.5,712112.4,505112.2,711909.3,492970.3,251535.4,371276.1
289319.9,274912.1,712139.3,505633,711936.6,493124,251924.1,371518.5
289492.1,275076.4,712147.4,505983.4,711944.3,493192.4,252188.4,371676.3
289108.6,274707.7,712122.3,505401.8,711919.1,492803.2,251794.7,371317.1
288928.8,274539.3,712114.6,504984,711911.4,492499.5,251524,371036.6
289231.9,274832.2,712133.7,505391.4,711930.8,492591.8,251829.3,371208.1
289490.3,275079.4,712147.1,505861.4,711944.1,492723.8,252182.5,371434.3
289176.7,274777,712126.2,505406.5,711923.1,492400.6,251881.8,371150.9
288909.6,274526.5,712114.3,504856.6,711911.3,492035.3,251519.1,370801.4
289151.3,274762.7,712134.6,505138.4,711931.3,492072.8,251740.9,370905.2
289460.1,275058.9,712151.4,505674.8,711948.4,492230.8,252138.9,371157.7
289229.5,274838,712132.3,505374.4,711929.3,491983.7,251946.4,370958.2
288876.7,274502,712109.9,504718.8,711906.5,491560.3,251504.8,370546.6
289057.8,274683.6,712128.3,504876.4,711924.9,491547.4,251647,370592.2
289437.2,275052.9,712155.6,505484.8,711952.9,491755.1,252105.2,370900
289299.2,274917,712140.3,505354.6,711937.7,491583.6,252028.1,370791.2
288896.2,274526.2,712111.3,504650.9,711908.6,491135.6,251551.5,370355.6
288992.5,274619.3,712124.9,504658.3,711921.8,491047.1,251585.3,370312.9
289387.1,274996.6,712150.4,505260.8,711947.6,491245.2,252036.9,370606.6
289365.6,274972.6,712142.1,505317.2,711938.8,491170.2,252095.1,370605.7
288952.6,274573.1,712117.1,504627.5,711914,490733.3,251627.7,370186.3
288946.2,274569.2,712120.2,504466.3,711917.1,490561,251536.8,370046.4
289335.8,274946.8,712147,505038.7,711944.8,490752.6,251970.9,370328
289429.8,275035.2,712148.1,505271.8,711945.6,490772.3,252159.1,370426.8
289022.8,274640.6,712121.4,504626.1,711918.8,490360.1,251721.3,370032.2
288917.9,274540.8,712118.9,504313.1,711915.9,490117.3,251526.3,369811.1
289267.9,274878.9,712144.4,504807.8,711941.6,490269,251904.5,370042.6
289469.2,275069.6,712154.3,505198,711951.6,490371.9,252206.3,370230.9
289104.1,274715.1,712129.8,504651.1,711927.1,490010.5,251836.9,369895.8
288900.2,274519.5,712118.4,504194,711916,489696.9,251534.2,369593.2
289210.7,274819.2,712139.6,504594,711937.3,489803.5,251842.1,369772.2
289504.8,275100.5,712156.1,505107.6,711953.6,489973.3,252232.6,370031.8
289210.6,274809.7,712133.7,504694.6,711931.1,489675.7,251954.7,369769.5
288925.9,274535.8,712117.6,504133.7,711914.8,489315.1,251580.4,369416.6
289167.3,274770.7,712138.9,504409.9,711936.1,489367.6,251806.2,369530.6
289504.2,275092.8,712156.9,504981.3,711954.6,489561.4,252235,369818
289300.6,274889.9,712137.3,504730.5,711934.8,489346.1,252075,369652.2
288958.4,274556.1,712119.4,504092.5,711916.4,488951.4,251646.6,369264.2
289132.2,274729.7,712138.8,504236.4,711935.8,488949.6,251782.9,369313.3
289496.4,275082.3,712159.4,504837.9,711957,489156.4,252236.1,369615
289394,274977.1,712147.4,504761.3,711944.9,489027.8,252202.2,369549.4
288993.7,274589.3,712121.6,504067,711919.3,488596.2,251728.7,369128.4
289062.7,274657.6,712129.9,504035.2,711927.9,488496.1,251730,369068.8
289444.5,275026,712157,504633.4,711954.8,488703.8,252180.5,369366.7
289455.2,275035.4,712154.3,504744.3,711952.1,488673.9,252282,369405.3
289031,274622.4,712122.9,504046.5,711920.7,488237.7,251800.8,368982.1
289008.1,274602.5,712127.8,503858.5,711925.8,488067.8,251694.3,368842.3
289376.2,274960.8,712151.9,504399.8,711949.7,488244.5,252102.1,369107
289492.5,275069.6,712154.9,504666.6,711952.4,488286.5,252312.1,369229.8
289090.6,274675.9,712126.6,504034.2,711924.4,487881.6,251877,368846.9
288962,274553.9,712121.2,503685.3,711919.2,487623.7,251648.3,368608.9
289309.5,274891.5,712149.5,504164.3,711947.2,487777.7,252016.6,368844.8
289526.6,275099.1,712159.9,504581.4,711957.9,487899.6,252337.6,369056
289172.6,274752.4,712133.3,504053.6,711931.2,487547.8,251977.6,368734.4
288950.5,274540.5,712126,503573.9,711923.7,487227.6,251659.5,368430.1
289229.3,274814.2,712147.7,503930.8,711945.9,487315,251938.1,368590.8
289517,275088.4,712162.6,504439.9,711960.1,487477.3,252324.2,368847.5
289245.1,274821.7,712143.5,504063.7,711941.4,487206.4,252076.2,368617.4
288929.5,274519.7,712126.6,503457.8,711924.4,486819.5,251663,368242.4
289138,274727.8,712143.9,503675.2,711941.8,486838.4,251840.5,368324.1
289484.5,275061.4,712166.5,504250.4,711964.1,487037,252275.1,368618.4
289301.6,274880.8,712151.4,504031.1,711949.3,486841.1,252137.3,368476.2
288926.2,274519.4,712127.7,503350.2,711925.3,486416.7,251671.2,368064.8
