EEG 1, EEG 2, EEG 3, EEG 4, EEG 5, EEG 6, EEG 7, EEG 8
620118.6,-750000.1,23545.42,283497.6,48378.48,317652.2,276415.2,-252705.4
613622.6,-750000.1,-318128,216713,-192078.3,444520.3,62917.39,-242070
742169.3,-346352,-389151.3,454724.9,-398002.2,573787.8,-359986.2,-237378.8
750000.1,254593.8,518786.2,468160.9,-43880.41,579005.8,-241327.5,-39873.91
750000.1,665982.1,750000.1,495741,345301.1,719843.1,293441.7,316440.6
750000.1,673860.9,750000.1,750000.1,518046.3,750000.1,517761.7,456151.1
750000.1,674454.2,750000.1,750000.1,715766.4,750000.1,605002.2,548837.3
750000.1,670320.9,679865.6,750000.1,673296.2,750000.1,611840.3,639608.7
750000.1,732148.1,750000.1,750000.1,659123.8,750000.1,589406.8,639391.3
750000.1,750000.1,750000.1,750000.1,676592.2,750000.1,592286.8,750000.1
750000.1,750000.1,750000.1,750000.1,750000.1,750000.1,729074.1,750000.1
750000.1,750000.1,750000.1,750000.1,750000.1,750000.1,750000.1,750000.1
750000.1,750000.1,750000.1,750000.1,750000.1,750000.1,750000.1,750000.1
750000.1,750000.1,750000.1,750000.1,750000.1,750000.1,750000.1,750000.1
750000.1,750000.1,750000.1,750000.1,750000.1,750000.1,750000.1,750000.1
750000.1,750000.1,750000.1,750000.1,750000.1,750000.1,750000.1,750000.1
750000.1,750000.1,750000.1,750000.1,750000.1,750000.1,750000.1,750000.1
750000.1,750000.1,750000.1,750000.1,750000.1,750000.1,750000.1,750000.1
750000.1,750000.1,750000.1,750000.1,750000.1,750000.1,750000.1,750000.1
750000.1,750000.1,750000.1,750000.1,750000.1,750000.1,750000.1,750000.1
750000.1,734217.6,750000.1,750000.1,750000.1,750000.1,750000.1,750000.1
750000.1,707509.8,750000.1,750000.1,750000.1,750000.1,750000.1,750000.1
744562.9,683146.6,750000.1,750000.1,750000.1,750000.1,750000.1,750000.1
720371.4,661572.6,750000.1,750000.1,750000.1,750000.1,750000.1,750000.1
698438.1,642031.6,750000.1,750000.1,750000.1,750000.1,750000.1,750000.1
677599.1,623470.9,750000.1,750000.1,750000.1,750000.1,750000.1,750000.1
658050.5,606061.5,750000.1,750000.1,750000.1,750000.1,750000.1,750000.1
640593.3,590535.9,750000.1,750000.1,750000.1,750000.1,750000.1,750000.1
624822.6,576522.9,750000.1,750000.1,750000.1,750000.1,750000.1,750000.1
609670.6,563068.8,750000.1,750000.1,750000.1,750000.1,750000.1,750000.1
595143,550165.3,750000.1,750000.1,750000.1,750000.1,750000.1,750000.1
582154.3,538654.9,750000.1,750000.1,750000.1,750000.1,750000.1,750000.1
570478.3,528309.3,750000.1,750000.1,750000.1,750000.1,750000.1,750000.1
559205.9,518310.5,750000.1,750000.1,750000.1,750000.1,750000.1,750000.1
548054,508412.6,750000.1,750000.1,750000.1,750000.1,750000.1,750000.1
538018.9,499523.6,750000.1,750000.1,750000.1,750000.1,750000.1,750000.1
529118.2,491647.2,750000.1,750000.1,750000.1,750000.1,750000.1,750000.1
520577.4,484087.7,750000.1,750000.1,750000.1,750000.1,750000.1,750000.1
511968,476462.3,750000.1,750000.1,750000.1,750000.1,750000.1,750000.1
504063.1,469469,750000.1,750000.1,750000.1,750000.1,750000.1,750000.1
497125.7,463343.5,750000.1,750000.1,750000.1,750000.1,750000.1,750000.1
490518,457501.8,750000.1,750000.1,750000.1,750000.1,750000.1,750000.1
483696.4,451457,750000.1,750000.1,750000.1,750000.1,750000.1,750000.1
477327,445824.7,750000.1,750000.1,750000.1,750000.1,750000.1,750000.1
471833.8,440981.7,750000.1,750000.1,750000.1,750000.1,750000.1,750000.1
466662.8,436412.7,750000.1,750000.1,750000.1,750000.1,750000.1,750000.1
461221,431593.3,750000.1,750000.1,750000.1,750000.1,750000.1,750000.1
456008.7,426991,750000.1,750000.1,750000.1,750000.1,750000.1,750000.1
451543.3,423058.1,750000.1,750000.1,750000.1,750000.1,750000.1,750000.1
447456.3,419450.7,750000.1,750000.1,750000.1,750000.1,750000.1,750000.1
443129.5,415624.7,750000.1,750000.1,750000.1,750000.1,750000.1,750000.1
438705.1,411708.3,750000.1,750000.1,750000.1,750000.1,750000.1,750000.1
435007,408454.1,750000.1,750000.1,750000.1,750000.1,750000.1,750000.1
431815,405652.1,750000.1,750000.1,750000.1,750000.1,750000.1,750000.1
428362.8,402607.2,750000.1,750000.1,750000.1,750000.1,750000.1,750000.1
424700.3,399375.3,750000.1,750000.1,750000.1,750000.1,750000.1,750000.1
421580.2,396634.9,750000.1,750000.1,750000.1,750000.1,750000.1,750000.1
418936.7,394313.4,750000.1,750000.1,750000.1,750000.1,750000.1,750000.1
416170.7,391878,750000.1,750000.1,750000.1,750000.1,750000.1,750000.1
413077.4,389147.6,750000.1,750000.1,750000.1,750000.1,750000.1,750000.1
410405,386804,750000.1,750000.1,750000.1,750000.1,750000.1,750000.1
408299.4,384969.8,750000.1,750000.1,750000.1,750000.1,750000.1,750000.1
406140,383077.1,750000.1,750000.1,750000.1,750000.1,750000.1,750000.1
403492.5,380736.8,750000.1,750000.1,750000.1,750000.1,750000.1,750000.1
401142.4,378673.4,750000.1,750000.1,750000.1,750000.1,750000.1,750000.1
399362.8,377124.5,750000.1,750000.1,750000.1,750000.1,750000.1,750000.1
397653.6,375635.8,750000.1,750000.1,750000.1,750000.1,750000.1,750000.1
395492.7,373732.8,750000.1,750000.1,750000.1,750000.1,750000.1,750000.1
393415.8,371908.6,750000.1,750000.1,750000.1,750000.1,750000.1,750000.1
391896.1,370587.2,750000.1,750000.1,750000.1,750000.1,750000.1,750000.1
390541.1,369413.4,750000.1,750000.1,750000.1,750000.1,750000.1,750000.1
388743.2,367835.3,750000.1,750000.1,750000.1,750000.1,750000.1,750000.1
386888,366209.6,750000.1,750000.1,750000.1,750000.1,750000.1,750000.1
385559.9,365062.8,750000.1,750000.1,750000.1,750000.1,750000.1,750000.1
384492.8,364148.8,749457.5,749519.1,749222.8,749719.9,749621.9,750000.1
383053.6,362892.7,747786.7,747848.1,747552.6,748048.4,747951.1,748503.3
381399.7,361445,746177.6,746239.1,745944.4,746439.1,746342.5,746893.5
380183.6,360393.5,744657.5,744718.9,744425.3,744918.6,744822.2,745372.7
379312.4,359650.5,743222.6,743283.8,742990.9,743483.3,743387.3,743936.8
378167.2,358656.8,741833,741894.3,741602.1,742093.3,741998,742546.1
376680.9,357356.5,740483.6,740545,740252.8,740742.8,740648,741195.4
375573.2,356404,739218.9,739280.1,738988.7,739477.8,739383.3,739929.9
374896,355837.2,738032.6,738094.3,737803.8,738291.6,738197.5,738742.9
374022.4,355085.7,736878.3,736939.6,736650.1,737136.7,737043.4,737587.7
372698,353926.4,735743.6,735804.8,735515.5,736001.6,735908.7,736451.9
371644.4,353016.5,734679.7,734740.4,734452,734937.1,734844.5,735387.6
371052.3,352523.2,733686.5,733747.4,733459.2,733944,733851.2,734393.9
370400.3,351975,732729.6,732791.2,732503.1,732987.3,732895.1,733436.3
369263.9,350983.2,731785,731846.1,731558.6,732042.1,731949.8,732490.4
368269.5,350126.1,730893.1,730954.8,730667.6,731150.3,731058.4,731598.2
367764.1,349710.7,730067.6,730129.1,729842.9,730324.6,730232.8,730772.5
367287.3,349310.1,729273.1,729334.1,729048.6,729529.6,729438.4,729977.2
366302.1,348445.2,728473,728533.9,728248.3,728729.1,728637.9,729176.4
365337,347606.4,727717.1,727778.3,727493.1,727973.1,727881.8,728419.8
364855.4,347208.1,727021.3,727082.4,726797.8,727277.3,727186.1,727723.8
364517.1,346932.6,726359.4,726420.6,726136.1,726615.4,726524.6,727061.7
363749.5,346265.1,725699.6,725760.8,725476.5,725955.3,725864.8,726401.1
362819.4,345452.7,725059.1,725120.4,724836.5,725315.1,725224.6,725760.4
362347.5,345058.9,724474.9,724535.9,724252.4,724730.3,724640.3,725175.6
362129.2,344894.5,723931.4,723991.9,723709.8,724186.8,724096.6,724631.2
361539.1,344385.2,723385.4,723445.8,723163.6,723640.1,723550.3,724084.6
360656.2,343609.9,722843.3,722903.6,722621.5,723097.8,723008.4,723542.4
360170.9,343202.8,722348.4,722408.9,722126.9,722602.8,722513.8,723046.9
359992.2,343070.7,721887.3,721947.9,721665.8,722141.2,722052.5,722585.4
359546.5,342694.6,721427.8,721488.1,721206.2,721681.4,721592.4,722125.3
358721.6,341976,720969.6,721030.3,720748.3,721223.3,721133.8,721666.9
358205.8,341539.9,720551.9,720612.5,720331.1,720805.4,720716,721249.3
358088.7,341465.7,720173.6,720234.3,719953.4,720427.5,720338.3,720871.3
357821.6,341252.9,719802.8,719863.8,719582.5,720056.5,719967.5,720499.9
357064.5,340593.5,719415.3,719476.7,719195.4,719668.9,719579.9,720112.1
356503.5,340114.4,719055.1,719116.3,718835.6,719308.8,719219.6,719751.7
356387.7,340035.8,718734.3,718795.8,718515.2,718988.1,718899,719430.7
356220.2,339910,718424.1,718485.4,718204.6,718677.8,718588.5,719120.4
355570.8,339345.4,718102.4,718163.6,717882.6,718355.9,718266.8,718798.5
354978.2,338836.1,717794.8,717855.9,717575.8,718048.2,717959.3,718490.5
354877,338774.2,717533.9,717595,717315,717786.9,717698.2,718229.3
354795.4,338723.3,717275,717335.9,717056.1,717527.9,717439.1,717970.2
354254.2,338253.9,717002,717062.9,716783,717254.9,717165.9,717697.2
353636,337721.1,716736.6,716797.9,716517.8,716989.8,716900.6,717431.8
353484.3,337611.3,716513.9,716575.3,716295.8,716767.1,716677.9,717209.3
353482.9,337634.4,716301.9,716363.1,716083.6,716554.9,716465.4,716996.7
353044.5,337256.8,716069.6,716130.6,715851.2,716322.2,716232.7,716763.8
352445,336741.5,715846.5,715907.6,715628.6,716099.8,716009.8,716540.9
352253.8,336594.1,715655.5,715716.6,715437.6,715908.6,715818.6,716349.8
352299.4,336653.8,715481.9,715542.7,715263.8,715734.6,715644.3,716175.7
351936.4,336340.2,715287.9,715348.3,715069.8,715540.1,715449.9,715981.3
351309.1,335793.8,715088.9,715149.4,714870.9,715341.4,715251,715782.4
351154.7,335682,714933,714993.4,714715.4,715185.6,715095,715626.7
351219.3,335763.4,714790.6,714851.4,714573.3,715043.7,714952.6,715484.2
351031.8,335613.4,714632.1,714692.3,714414.4,714884.4,714793.4,715324.8
350416,335071.7,714457.8,714518.2,714240.6,714709.9,714618.9,715150.4
350099.1,334808.7,714318.8,714379.3,714101.9,714570.9,714479.6,715011.7
350199.9,334924.8,714207.5,714267.8,713990.1,714459.5,714367.5,714900.1
350130.3,334877.3,714078.6,714139.1,713861.2,714330.5,714238.5,714771.4
349585.2,334400.3,713929.4,713990.1,713712.1,714181.8,714089.3,714622.3
349175.3,334051.1,713799.9,713860.7,713582.8,714052.3,713959.3,714492.4
349236.1,334127.1,713705.4,713766.5,713488.4,713957.5,713864.5,714398.2
349253.7,334157.3,713599.7,713661,713382.5,713851.6,713758.6,714292.3
348781.5,333745.3,713474.4,713535.5,713257.4,713726.9,713632.9,714166.8
348343.5,333370.9,713363.1,713423.8,713146,713615.4,713520.6,714055.3
348384.3,333434.2,713287.8,713348.7,713071.1,713540.1,713445.2,713980.2
348479.7,333537,713206.1,713266.8,712989.6,713458.9,713363.3,713898.8
348075.7,333180.4,713091.8,713152.3,712875.1,713344.2,713248.6,713784.2
347583.3,332750.8,712988.4,713048.9,712771.9,713240.6,713144.9,713680.6
347544.2,332734.7,712918.3,712978.9,712701.9,713170.4,713074.3,713610.1
347710.8,332907.9,712860.4,712921,712643.8,713112.7,713015.8,713552.3
347462.2,332696.2,712778.3,712838.6,712561.4,713030.3,712930.9,713469.6
346964.7,332259,712687.9,712748.4,712471.3,712939.9,712836.3,713378.1
346828.6,332151,712617.8,712678.4,712401.4,712870.1,712762.4,713307.1
346989.3,332310.2,712565.8,712626.8,712349.8,712818.3,712707.3,713254.8
346823.2,332170.4,712495.1,712555.7,712278.9,712747.6,712632,713182.9
346311.4,331721.1,712411.8,712472.6,712195.8,712664.7,712544.1,713098.4
346121.1,331564.7,712351.5,712412.1,712136,712604.4,712479.3,713036.9
346306.9,331748.3,712318.3,712379.4,712103.1,712570.9,712442.4,713002.7
346292.6,331750.1,712274.3,712335.2,712058.9,712526.9,712394.2,712957.8
345773.7,331291,712191.3,712252.1,711976.3,712444.1,712306.1,712873.6
345477.5,331036.9,712125.1,712185.4,711909.6,712377.8,712234.6,712806.1
345646.2,331209.2,712097.6,712157.9,711882,712350.4,712203.1,712778.1
345709.7,331277.8,712061.6,712121.5,711846.1,712314.6,712162.6,712741.4
345259.1,330878.7,711993.4,712053.4,711778.1,712246.5,712088.5,712671.6
344928.8,330594.5,711943,712002.7,711727.3,712195.2,712031.9,712619.3
345028.5,330696.9,711913.8,711973.6,711698.4,712165.9,711997.8,712589.3
345157.1,330827.7,711886.4,711946.3,711671,712138.7,711964.9,712561.1
344756.4,330474.2,711823.6,711883.5,711607.9,712075.9,711895.8,712497
344360.2,330130.7,711769.5,711829.6,711554.7,712022.6,711834.9,712441.9
344445.7,330222.8,711753.1,711813.1,711538.1,712006.3,711812.2,712424.2
344654.3,330425.8,711742.1,711802.1,711526.7,711994.9,711795.1,712412.6
344363.8,330162.6,711698.7,711758.9,711483.4,711951.1,711742.8,712367.8
343917.7,329767.7,711646.8,711707.1,711432,711899.2,711677.5,712314.6
343899.1,329767.2,711619.4,711679.3,711404.8,711872.2,711591.1,712285.5
344091.6,329950.1,711599.4,711659.4,711385.8,711853.3,710909.2,712258.8
343917.3,329804.2,711566.1,711626.3,711352.4,711819.9,708979.6,712219.1
343465.5,329410.3,711520.2,711580.2,711306.1,711773.8,706380.9,712169.9
343421.4,329383.6,711510.4,711570.5,711297,711764.3,704209.7,712158.4
343618.9,329565.8,711495.7,711556.1,711282.9,711750.5,702458.1,712143.1
343503.7,329466.8,711459.9,711520.1,711246.8,711714.4,700510.1,712106.1
343037.1,329051.2,711415.1,711475.6,711201.9,711669.6,698176.4,712059.8
342913.4,328955.2,711401.1,711461.3,711187.7,711655.3,696143.7,712044.4
343131.9,329164,711396.4,711456.6,711182.8,711650.4,694519.5,712038.9
343139.4,329177.5,711375.8,711435.9,711162.6,711630.3,692778.1,712017.9
342680.8,328766.1,711330.6,711390.4,711117.5,711585.1,690542.5,711972.2
342447.3,328566,711306.4,711366.5,711093.3,711560.9,688459.1,711947.4
342661.8,328775.5,711312.2,711372.8,711099.9,711567.6,686872.4,711950.6
342779.1,328888.3,711305.3,711365.7,711093,711560.6,685294.3,711941.3
342350,328501.7,711259.9,711319.8,711047,711514.6,683406.4,711900.1
341978.9,328170.2,711218,711277.9,711005.1,711472.5,681581.8,711857.9
342120.4,328311.6,711218.6,711278.9,711005.6,711473.1,680289.9,711858.5
342310.4,328492.8,711219.7,711279.7,711006.4,711473.6,679130.9,711859.6
341998.6,328218.1,711190.9,711250.9,710977.8,711445.3,677477.8,711831.2
341615.1,327882,711157.5,711217.8,710944.6,711411.8,675662.3,711797.9
341682.1,327953,711154.4,711214.1,710941.2,711408.8,674299.1,711794.8
341879.7,328134.3,711150.4,711210.6,710937.8,711404.4,673151.3,711791.1
341662.6,327943.8,711128.4,711188.8,710915.6,711382.3,671616.5,711769.1
341249.4,327578.9,711100.7,711160.5,710887.8,711354.9,669811.4,711741.2
341229,327568.1,711089.5,711149.1,710876.4,711343.6,668377.4,711729.8
341482,327807,711098.2,711158.3,710885.4,711352.7,667299.4,711738.9
341360.9,327701.4,711083.6,711143.9,710871.2,711337.9,665899.7,711724.6
340918.9,327310.1,711052.2,711112.3,710839.7,711306.3,664106.7,711693.3
340847.8,327260.8,711043.4,711103.6,710831.1,711297.9,662631.2,711684.8
341077.2,327480.5,711047.8,711107.8,710835.3,711302,661535.1,711689.5
341028.4,327438.6,711034.6,711094.3,710821.7,711288.8,660238,711675.9
340570.7,327028.2,710996.9,711056.7,710784.3,711251.3,658469.1,711638.7
340417.2,326904.5,710988.6,711048.6,710776.3,711242.9,656940,711630.6
340670.8,327145.6,711008.1,711068.3,710795.8,711262.4,655879.2,711650.3
340731.1,327204.6,711001.3,711061.6,710788.4,711255.8,654704.5,711643.8
340319.9,326833.1,710970.1,711029.9,710757.4,711224.5,653023.5,711612.8
340105.2,326649.6,710962.9,711022.7,710750.3,711217.2,651461.6,711605.8
340262.6,326798.1,710962.9,711022.5,710750.3,711217.3,650312.9,711605.4
340405.2,326930,710963.8,711023.7,710751.4,711218.1,649237.5,711606.8
340053.9,326612.5,710938.2,710997.9,710725.9,711192.7,647660.6,711581.6
339752.5,326350.5,710923,710983.4,710711.1,711177.6,646047.8,711566.6
339910,326506.6,710937.3,710997.3,710724.7,711191.3,644912.8,711580.7
340155.8,326740.8,710955,711014.8,710742.4,711209.5,643959.1,711598.6
339825.9,326439.8,710917.1,710976.9,710704.8,711171.8,642438.6,711561.2
339426.8,326083.2,710888.4,710948.1,710676.3,711143.1,640772.8,711532.9
339523.6,326186.4,710900.8,710960.6,710688.3,711155.4,639596.6,711545.4
339779.1,326422.8,710913.6,710973.6,710700.9,711168.3,638660.3,711558.3
339594.7,326256.7,710898.8,710958.9,710686.3,711153.3,637325.8,711543.8
339174.2,325876.8,710870.6,710930.4,710658,711125.2,635673.7,711515.4
339191.4,325900.9,710877.6,710937.1,710664.7,711132.1,634427.3,711522.6
339443.1,326133.3,710887.2,710947.1,710674.6,711141.7,633496.4,711532.6
339355.6,326055.7,710875.4,710935.4,710662.9,711130.2,632285.6,711521.4
338920.8,325669.3,710851.4,710911.1,710639.1,711106.2,630667.8,711497.6
338825.7,325589.8,710846.2,710905.3,710633.7,711100.8,629331,711492
339096.4,325841.4,710863.8,710923.1,710651.3,711118.4,628429.3,711509.9
339130.7,325879.2,710864.1,710923.6,710651.8,711118.9,627364.9,711510.4
338694.2,325485.2,710834.1,710893.4,710621.8,711088.8,625783.3,711480.6
338518.2,325333.2,710824.3,710883.8,710611.4,711078.6,624389.2,711471.1
338769.3,325568.1,710842.8,710902.1,710630,711097,623480.7,711489.9
338904.7,325693.4,710852.5,710911.9,710640.1,711106.8,622538.1,711499.8
338504.4,325326.3,710823.1,710882.9,710611.1,711077.8,621038.5,711471.1
338254.4,325110,710813.9,710873.1,710601.6,711068.7,619610.9,711461.8
338452.3,325301.2,710831.8,710890.9,710619.5,711086.4,618661.6,711479.7
338627,325466.5,710836.6,710895.8,710624.2,711091.6,617768.7,711484.5
338294.5,325165.3,710812.3,710871.3,710599.4,711066.6,616372.4,711460.2
337977,324886.4,710796.9,710856.1,710584.3,711051.4,614904.2,711445.5
338104.9,325010.6,710806.1,710864.9,710593.6,711060,613888.6,711454.4
338349.6,325235.7,710821.8,710880.9,710609.3,711075.6,613078.6,711470.2
338103.4,325010.6,710803.5,710862.2,710590.5,711057.1,611802.1,711451.9
337740.2,324689,710787.6,710846.2,710574.8,711041.1,610324.5,711436.1
337837,324788.7,710806.3,710864.9,710593.6,711059.8,609297.3,711455.1
338096.8,325023.5,710820.4,710878.9,710607.3,711074.6,608512.9,711469.6
337920.4,324858.6,710801.1,710859.7,710587.8,711055.2,607337.3,711450.5
337508.1,324489.8,710777.4,710836.3,710564.3,711031.3,605851.9,711426.8
337503.8,324495.9,710783.3,710842.2,710570.3,711037.3,604735.4,711433.1
337804.1,324774,710807.1,710865.6,710593.8,711060.8,603996.4,711456.9
337757.8,324731,710802.1,710860.1,710588.6,711055.4,602976,711451.9
337314.8,324330,710771.2,710829.7,710558.3,711025.5,601502.1,711421.3
337229.8,324264.3,710773.5,710832.4,710561.4,711028.2,600321.1,711424.4
337507.9,324523.6,710793.9,710852.6,710581.9,711048.2,599567.5,711445.1
337572.5,324584,710797.4,710856.1,710585.1,711051.6,598677.3,711448.6
337161.8,324212.9,710773.5,710831.9,710560.6,711027.6,597271.2,711424.8
336971.3,324043.9,710765.7,710823.9,710552.7,711019.6,596012.9,711416.8
337212.4,324269.7,710782.9,710841.6,710570.5,711037.2,595226.2,711434.6
337371.3,324416.7,710794.7,710853.4,710581.9,711048.9,594442,711446.8
336992.4,324070.1,710769.1,710827.4,710555.8,711022.9,593103.7,711421.1
336722.4,323829.5,710755.8,710814.2,710542.9,711009.6,591791.6,711407.7
336918.9,324017.3,710774.3,710832.2,710561.4,711028.2,590969,711426.4
337138.3,324216.6,710787.8,710845.9,710574.9,711041.9,590254.2,711440.3
336842.3,323943.3,710767.6,710826,710554.8,711021.6,589033.1,711420.3
336520.5,323656.6,710752.5,710810.6,710539.9,711006.4,587699.9,711405.8
336653,323786,710768.5,710826.8,710555.6,711022.4,586822.4,711422
336899.9,324011.3,710782.2,710840.9,710569.9,711037,586148.1,711435.6
336696.8,323828.3,710768.4,710826.6,710556,711022.7,585044.9,711421.8
336306.3,323479.9,710745.3,710802.8,710532.2,710999.3,583673,711398.5
336353,323530.8,710752.9,710810.8,710540.2,711006.9,582721,711406.4
336650.3,323804.2,710776.3,710834.3,710563.7,711030.2,582099.4,711430.3
336537.6,323699.5,710765.3,710823.5,710552.6,711019.5,581117.8,711419.4
336127.2,323332.6,710744,710802.1,710531.3,710998.1,579765.6,711398.1
336103.4,323320.4,710750.4,710807.9,710537.6,711004,578757.1,711404.3
336389.8,323583.8,710769.3,710827.4,710556.3,711023.3,578127.8,711423.7
336379.7,323575.6,710768.6,710826.4,710555.6,711022.7,577271.3,711423.2
335982.3,323220,710747.8,710804.9,710534.4,711001.5,575963.1,711402.3
335850.4,323106.5,710743.1,710799.8,710529.7,710996.6,574863.8,711397.5
336123.8,323357.2,710764.8,710821.6,710551.5,711018.3,574228.4,711419.3
336213.1,323438.5,710767.9,710825,710554.7,711021.3,573476.7,711422.4
335817.6,323079.6,710742.5,710799.6,710529.1,710996,572209.6,711397.3
335611.9,322897.7,710733,710790,710519.8,710986.9,571052.1,711388.4
335867.4,323135.4,710757.3,710814.4,710543.8,711010.9,570393.8,711412.8
336063.3,323314.3,710775.1,710832.1,710561.8,711028.6,569764.3,711430.7
335698.7,322980.7,710745.8,710802.9,710532.6,710999.6,568558.3,711401.7
335417.7,322732.2,710731.6,710788.8,710518.6,710985.4,567356.3,711387.8
335595.5,322900.4,710745.4,710802.5,710532.1,710999,566630.5,711401.4
335834.3,323118.3,710760.6,710817.9,710547.7,711014.6,566048.9,711416.8
335571.4,322875.3,710746.4,710803.9,710533.5,711000.4,564972.9,711402.9
335243.4,322583.6,710731.8,710788.8,710518.8,710985.7,563746.4,711388.4
335354.1,322693.1,710743.4,710800.4,710530.4,710997.3,562959.8,711400.1
335624.1,322939.2,710760.4,710817.1,710547.5,711013.9,562414.6,711417.3
335453.2,322780.1,710751.4,710807.9,710538.6,711004.6,561458.4,711408.4
335075.6,322441.1,710732.1,710788.4,710519,710985.4,560216.2,711389.4
335116.6,322484.8,710739.4,710795.9,710526.4,710992.8,559367.1,711396.5
335415.4,322757.8,710759.5,710816.2,710546.8,711012.9,558855.1,711417.3
335328.8,322671.8,710751.6,710808.3,710538.8,711005.1,558006.3,711409.2
334918.3,322298.3,710727.9,710784.4,710514.9,710981.5,556758.4,711385.3
334896.2,322289.1,710736.1,710792.8,710523.4,710989.8,555862.3,711394.2
335179.4,322553.8,710754.2,710811,710541.5,711007.7,555343.6,711412.5
335177.7,322547.8,710752.3,710808.8,710539.4,711005.8,554600.6,711410.8
334767.4,322169.4,710730.4,710786.3,710517.1,710983.9,553382.4,711388.8
334679.6,322100.9,710737.1,710793.2,710524.1,710990.4,552429.6,711396
334980.5,322387.5,710760.6,710816.3,710547.3,711013.9,551936.7,711419.1
335061.6,322462.5,710758.7,710814.2,710545.6,711011.9,551302.1,711417.1
334636.8,322061.9,710733.3,710788.8,710519.6,710986.1,550103.8,711391.9
334431.7,321876.4,710728.1,710783.6,710514.8,710980.8,549041.4,711387.1
334704.8,322138.7,710749.8,710805.3,710536.8,711002.6,548514.9,711408.9
334907.5,322328.8,710763,710818.8,710549.8,711016.2,548008.1,711422.2
334551.4,321994,710742.9,710798.2,710529.4,710996.1,546906.9,711402.1
334251.3,321718.6,710727.1,710782,710513.6,710980.4,545771.4,711386.5
334451.8,321912.9,710743.8,710798.8,710530.5,710997.3,545172.9,711403.3
334722.2,322167.7,710763.5,710818.8,710550.4,711016.8,544743.1,711423.3
334439.7,321899.2,710746.1,710801.3,710532.6,710999.2,543753.4,711405.9
334083.9,321576.6,710727.5,710782.4,710514,710981.1,542580.9,711387.3
334221.9,321716.2,710741.6,710796.9,710528.6,710995.2,541914.6,711401.9
334541,322019.7,710765.1,710820.1,710552,711018.1,541533.4,711425.4
334363.2,321852.9,710754.8,710809.6,710541.4,711007.7,540677.6,711415.3
333934,321455.1,710728.8,710783.8,710515.6,710982.3,539466.1,711390.3
333975.7,321502.1,710736.3,710791.3,710523.2,710989.7,538714.2,711397.6
334305.8,321812.4,710760.6,710815.8,710547.6,711014.1,538343.9,711422.1
334234.9,321743.9,710752.8,710807.7,710539.6,711006.4,537614.3,711413.9
333809.2,321347.8,710732.6,710787.1,710519.3,710985.9,536440.8,711394
333766.5,321318.1,710736.1,710790.4,710522.8,710989.4,535604.4,711397.3
334085.9,321624.5,710759.5,710813.8,710546,711012.6,535221.3,711420.8
334122.8,321656.3,710762.3,710816.6,710548.9,711015.6,534617.1,711424.1
333689.8,321250.7,710736.9,710790.8,710523,710990,533468.6,711398.8
333557.6,321133,710734.8,710788.6,710521.1,710988.1,532552.6,711396.9
333854.2,321414.5,710756.1,710810.4,710542.7,711009.6,532139.3,711418.4
334005.7,321555.8,710767.7,710821.6,710554.5,711020.6,531660.8,711429.6
333613.6,321184.7,710746,710799.6,710532.3,710998.8,530580.8,711408.1
333384.7,320977.4,710736.1,710789.9,710522.5,710989.4,529582.3,711398.5
333619.4,321199.8,710751.4,710805.4,710538.4,711004.9,529099.7,711413.9
333848.9,321414.3,710765.5,710819.3,710552.4,711019.1,528702.6,711428.2
333516.6,321102.1,710742.9,710796.5,710529.6,710996.4,527719.2,711405.8
333220,320829.9,710730.3,710783.8,710517.1,710983.8,526672.7,711393.6
333412.4,321014.3,710748.5,710801.8,710534.8,711001.8,526144.6,711411.7
333685.7,321266.4,710763.9,710817.8,710550.4,711017.4,525797.9,711427.4
333438.3,321029.8,710747.6,710801.3,710533.9,711001.1,524930.9,711410.8
333071.1,320692.9,710730.8,710783.9,710516.6,710984.3,523837.7,711394.2
333199.1,320821.1,710749.9,710803.5,710536.3,711003.8,523251.3,711413.9
333517.8,321123.1,710771.3,710825,710557.8,711024.9,522948.2,711435.1
333355.4,320966.9,710754.1,710807.9,710540.7,711007.9,522185.4,711418.1
332938.1,320578.5,710727.2,710780.9,710513.6,710980.8,521065.6,711390.9
332987,320632.1,710741.6,710794.7,710528.4,710995.1,520397.6,711405.6
333326.8,320953.3,710767.2,710820.4,710553.6,711020.6,520110.7,711431.1
333280.5,320903.6,710759.7,710812.9,710546.3,711013.1,519486.6,711423.9
332858.5,320509.4,710737.6,710790.7,710524.3,710991.1,518397.7,711402.3
332793.3,320458.8,710738.9,710791.5,710525.3,710991.9,517615,711403.1
333135,320782.7,710768.3,710821.1,710554.7,711021.6,517323.1,711432.6
333201.3,320843,710769.3,710822.3,710555.6,711022.4,516824.6,711433.8
332776.1,320443,710740.7,710793.6,710527.1,710993.9,515756.4,711405.3
332617.8,320299.4,710733.8,710786.1,710520.3,710986.9,514885.2,711398.2
332908.5,320572.8,710757.4,710809.6,710543.7,711010.8,514540,711421.8
333101.7,320754.2,710776.6,710829.3,710562.7,711029.7,514181.9,711441.3
332720.8,320391.3,710749.8,710802.1,710536.1,711003.1,513197.1,711414.9
332481.2,320174.4,710741.3,710793.4,710527.9,710994.6,512264.9,711406.5
332707.3,320392,710758.7,710810.4,710544.9,711011.4,511850.7,711423.7
332929,320598.8,710768.7,710820,710554.9,711021.4,511522.9,711433.4
332637.4,320324.3,710752.3,710803,710539.1,711005.7,510661.2,711417.5
332331.9,320044.3,710738.9,710788.8,710526.1,710992.8,509679.7,711405.2
332540.6,320248.7,710763.4,710813.1,710550.4,711017.2,509236.1,711429.7
332817.8,320508.3,710775.4,710825.6,710562.8,711029.1,508956.7,711441.9
332577.3,320275.3,710755.1,710804.4,710542.9,711009.3,508172.9,711421.8
332187,319908.4,710729.9,710778.1,710518.1,710984.7,507132.5,711397.3
332293.8,320015.3,710745.6,710793.2,710533.6,711000.5,506589.8,711413.3
332623.6,320326.7,710772.4,710819.9,710560.3,711027,506372.8,711440.3
332502.4,320209.6,710761,710808.2,710549.6,711015.6,505733.8,711428.8
332099.6,319836.2,710737.3,710783.6,710526.9,710992.6,504701,711406.4
332131.8,319875,710749.6,710795.4,710539.3,711005.4,504077.2,711419.3
332461.8,320184.1,710776.8,710822.6,710566.4,711032.3,503847.8,711446.1
332442.6,320161.1,710770.9,710816.4,710560.6,711026.8,503314.9,711440.6
332028.1,319778.7,710746,710790.3,710536.3,711002.4,502305.7,711416.1
331937.2,319702.1,710742.9,710786.5,710533,710999.4,501562.1,711413.3
332258.3,320007.2,710770.7,710814.6,710560.5,711027.3,501316.1,711440.9
332360.5,320095.9,710778.3,710822,710568.5,711035.1,500927.7,711449
331939.6,319697.4,710747.1,710789.9,710538.1,711004.8,499945.4,711418.5
331769.7,319550.4,710743.1,710784.5,710533.6,711000.4,499137.6,711414.6
332042.6,319808.6,710766.2,710807.7,710556.8,711023.6,498837.1,711438
332219.9,319968.2,710773.9,710816.1,710564.8,711031.9,498518.5,711445.9
331880.9,319648.5,710753.9,710795.1,710545.4,711012.1,497642.7,711426.2
331637.5,319428.7,710745.6,710785.4,710537.3,711004,496771.5,711418.6
331850.2,319631.6,710763,710802.9,710554.6,711021.9,496396.7,711436.1
332111.1,319875.9,710780.9,710820.8,710572.4,711039.5,496169.1,711454
331826.9,319605.7,710755.9,710795.5,710548.1,711015.2,495376,711430.1
331490,319292.5,710737.1,710775.6,710529.7,710996.6,494437,711411.7
331652.2,319452.3,710754.1,710792.1,710546.3,711013.4,494010.9,711428.7
331951.6,319728.8,710774.3,710812.4,710566.3,711033.2,493810.6,711448.9
331777.4,319562.6,710764.8,710801.9,710557.3,711024.5,493154.1,711439.6
331392.9,319210.1,710742.4,710778.4,710535.9,711003.3,492182.6,711418.5
331479.8,319300.3,710756.2,710791.4,710549.5,711016.6,491676.5,711431.8
331795.6,319594.8,710776.9,710812.8,710570.6,711037.4,491495.4,711452.8
331709.2,319505.6,710770.1,710805.7,710563.7,711031,490946.3,711445.9
331296.3,319121.5,710743.7,710777.8,710537.8,711004.8,489968.8,711419.9
331298.8,319133.8,710750.8,710784.4,710545.3,711012,489370.9,711427.3
331609.5,319425.3,710771.8,710805.4,710566.2,711032.8,489174.6,711448.4
331631,319438.7,710770.7,710804.1,710565.4,711031.8,488743.1,711447.8
331241.4,319075.7,710749.2,710781.7,710544.3,711011.2,487817.4,711426.8
331149.3,318997.2,710751.8,710783.6,710547.3,711014.5,487133.9,711429.9
331451.5,319281.8,710775.9,710807.3,710570.9,711038,486925.4,711453.6
331561.2,319376.4,710777.8,710809.3,710572.6,711039.9,486592.8,711455.9
331177.6,319014.2,710752.3,710782.9,710548.3,711015.4,485709.4,711431.4
330987.9,318843.7,710746.1,710775.8,710542.7,711009.6,484941.9,711425.3
331251.8,319093.6,710767.6,710796.5,710563.7,711030.5,484679.6,711446.3
331459.2,319286.1,710780.6,710809.2,710576.1,711043.4,484445.7,711459.3
331144.1,318986.5,710761.3,710789,710557.2,711024.6,483654.8,711440.3
330883.4,318747.7,710751.6,710778.4,710547.9,711015.2,482827.5,711431.1
331061.9,318919.3,710763.9,710791.1,710560.8,711027.8,482476.1,711444.1
331327.3,319164.9,710780.1,710807.1,710576.8,711043.6,482304.6,711460
331100.8,318952.2,710767.7,710793.8,710564.3,711031.4,481628.1,711447.9
330776.9,318653.6,710751.4,710776.4,710548.6,711016.1,480748.8,711432.2
330884.2,318753.4,710756,710780.9,710553.6,711021,480315.1,711437.2
331189.3,319032.5,710775.9,710800.7,710573.5,711040.6,480177.3,711456.9
331054.1,318899.4,710768.9,710793.2,710566.9,711033.6,479613.9,711450.5
330684.3,318559.3,710753.7,710776.9,710552.3,711019.4,478716.8,711435.9
330733.4,318609.3,710761,710784,710559.8,711027.2,478217.6,711443.6
331064.6,318917,710784.2,710807.1,710582.8,711049.9,478093.3,711467.1
331017.4,318868.5,710781.1,710804,710580.3,711047,477638.6,711464.3
330595.5,318475.8,710752.7,710774.1,710552.3,711019.4,476717,711436.4
330564.2,318454.2,710755.1,710775.6,710554.7,711021.8,476142.8,711439
330885,318754,710779.8,710800.2,710579.1,711046.2,476001.1,711463.7
330953.3,318812.1,710784.1,710804.6,710583.6,711050.7,475664.7,711468.1
330546.7,318431.3,710755.9,710775.1,710555.8,711023.1,474780.7,711440.3
330416.2,318315.9,710753.3,710771.8,710553.8,711021,474111.9,711438.4
330718.5,318600.3,710777.3,710795.7,710577.8,711044.9,473941.3,711462.3
330871,318736.4,710783.3,710802.1,710584.1,711051.3,473697,711468.9
330486.3,318371.9,710754.1,710771.9,710555.6,711022.5,472866.2,711440.3
330285.6,318189.5,710747.7,710763.9,710549.4,711016.1,472131.7,711434.1
330545.1,318435.4,710773.6,710789.9,710575.1,711041.9,471912.7,711459.8
330790.5,318663.3,710792.6,710809,710593.9,711061,471764.6,711478.9
330490.9,318375.8,710772.6,710787.8,710574.5,711041.3,471044.2,711459.4
330181.4,318088.4,710754.1,710768.3,710556.7,711023.7,470220.7,711441.8
330371,318267,710769.7,710783.6,710572.1,711039.1,469919,711456.8
330668.4,318543.4,710790.7,710805.4,710593.2,711060.3,469818.1,711478.1
330457.3,318339,710778,710791.6,710580.6,711047.8,469207.9,711466
330100.3,318005.3,710756.3,710768,710559.2,711026.8,468348.1,711444.8
330226.5,318128.5,710773.3,710784.9,710576.6,711044.2,467981.1,711462.1
330555,318435.8,710800.5,710812.5,710603.2,711070.7,467912.6,711488.8
330396.8,318279.8,710779.7,710790.7,710582.4,711049.7,467375.8,711468.4
330006.1,317919.2,710756.4,710766.2,710560.3,711027.4,466506.5,711446.1
330043.6,317962.9,710767.6,710776.9,710571.9,711039.3,466048.1,711457.8
330374.7,318273.4,710793.6,710803,710597.2,711064.6,465971.9,711483.3
330360.8,318256,710790.9,710800.2,710594.6,711062.1,465594.4,711481
329970.3,317888.3,710767.8,710775.8,710572.1,711039.5,464751.4,711458.6
329904.4,317830.5,710764.7,710771.8,710569.3,711036.8,464184.9,711455.4
330219.9,318124,710790.8,710798.1,710595.3,711062.9,464082.3,711481.6
330300.2,318189.4,710796.6,710803.9,710601.1,711068.4,463810.2,711487.6
329920.3,317833.2,710773.9,710779.4,710579.1,711046.1,463003.3,711464.9
329786,317713.3,710770.6,710775.3,710576.1,711043.3,462370.3,711461.9
330066.8,317973.6,710791.1,710796.1,710596.3,711063.8,462215.2,711482.7
330230.4,318121.4,710797.4,710802.6,710603.1,711070.3,462027.4,711489.5
329878.9,317791.7,710774.3,710778.3,710580.6,711047.8,461280.4,711466.9
329656,317588.2,710766.6,710768.8,710573.2,711040.3,460568.3,711459.8
329904.9,317823.8,710789.4,710791.9,710596.1,711062.9,460370.8,711482.7
330136.8,318032.7,710803.1,710805.7,710609.2,711076,460253.2,711495.6
329863.7,317770.5,710785.1,710787,710591.8,711058.8,459606.3,711478.5
329570.1,317499.9,710772.4,710772.6,710579.7,711046.9,458836.5,711466.3
329723.8,317648.6,710784.8,710785.1,710592.5,711059.4,458541.8,711479.1
330022,317923.3,710806.7,710807.1,710613.9,711080.8,458487.5,711500.8
329851.5,317757,710797.6,710797.1,710605,711071.6,457967.9,711491.8
329492.6,317425.2,710777.3,710775.8,710585.7,711052.6,457157.8,711472.5
329586.3,317518.3,710788.4,710786.7,710596.8,711063.9,456794,711483.9
329888,317798.7,710804.2,710802.4,710612.3,711079.4,456730.5,711499.1
329801.4,317711.6,710798.4,710795.9,710606.6,711073.8,456313.5,711493.5
329389.4,317325.1,710770.9,710766.6,710579.9,711046.9,455474.6,711466.6
329411.8,317353.8,710780.1,710775.1,710588.9,711055.9,455035.6,711476.1
329732.7,317653.9,710802.1,710797.5,710610.7,711077.9,454984.6,711498.2
329764.8,317677.7,710806.6,710801.3,710614.8,711082.3,454695.7,711502.3
329379.8,317319.8,710785.4,710778.8,710594.9,711062.1,453908.9,711482
329296.3,317251.6,710784.4,710776.8,710594.4,711061.6,453368.4,711481.6
329602,317542.1,710807.9,710801,710617.5,711084.7,453289.9,711505.1
329700.2,317628.6,710807.8,710801.1,710617.5,711084.8,453070.4,711505.1
329346.6,317298.3,710790.7,710782.4,710600.8,711068.1,452336.8,711488.6
329182.9,317159.9,710788,710778.3,710598.4,711065.7,451722.5,711486.6
329433.3,317399,710802.3,710792.9,710613.1,711080.1,451573.4,711501.1
329616.8,317567.8,710809.9,710800.8,710621.1,711087.8,451443,711508.8
329306.3,317274.7,710790.3,710780.1,710602.1,711068.8,450776.6,711489.7
329075.6,317067.4,710782.6,710770.9,710594.9,711061.3,450097.6,711482.9
329285.3,317265.9,710801.8,710789.8,710613.8,711080.4,449897.9,711501.8
329518.9,317476.9,710810.1,710798.2,710621.6,711088.4,449810.9,711509.6
329281.1,317249.6,710794.2,710780.9,710606.2,711073.1,449237.4,711493.9
328962.5,316956.5,710778.4,710763.7,710590.7,711058,448486.5,711479.1
329118.6,317106.6,710794.3,710779.3,710606.3,711073.6,448226.9,711494.9
329420.8,317385.3,710813.9,710799.3,710625.6,711093.3,448206.4,711514.4
329252.2,317219.4,710798.8,710782.8,710610.6,711077.9,447724.3,711499.1
328892.3,316887.4,710780.6,710763.4,710593.4,711060.4,446954.3,711481.8
328975.8,316970.6,710793.8,710776.8,710607.5,711074.4,446613.9,711495.7
329324.2,317296.5,710824.4,710807.3,710637.6,711104.3,446634.6,711526.1
329248.5,317220.3,710813.5,710795.6,710626.6,711093.8,446262.7,711515.3
328817.8,316817.3,710781.1,710760.9,710594.7,711062.1,445442.6,711483
328806,316809.7,710787.2,710766.4,710601.4,711068.3,445005.5,711489.9
329135.9,317120.1,710810.4,710790.8,710624.7,711091.6,444990.3,711513.3
329186.1,317160.8,710812,710792.2,710625.9,711093.2,444751.6,711515
328792.8,316789.2,710786.6,710764.5,710601.1,711067.9,443990.1,711490.2
328696.6,316703.8,710787.8,710764.1,710602.1,711069,443465.3,711491.2
329013.3,316997.5,710816.3,710793,710630.6,711097.6,443429.5,711519.9
329135.7,317106.1,710822.3,710799.2,710637,711103.9,443278.3,711526.1
328763.7,316753.6,710794.4,710769.5,710609.9,711076.4,442562,711498.7
328573.4,316578.3,710783.9,710757.1,710599.4,711066.3,441946.8,711488.7
328835.6,316824.9,710806.8,710780.8,710622.3,711089.3,441843,711511.8
329047,317013.4,710820.4,710795.4,710636.1,711103.2,441778.1,711525.6
328742.8,316721.4,710799.3,710772,710615,711082,441150,711504.7
328482.4,316481.4,710785.9,710756.7,710602.1,711069.3,440471.3,711492.1
328681.1,316670.8,710801.9,710772.4,710618.1,711085.1,440291.2,711507.9
328953.3,316915.8,710820.2,710791.1,710635.9,711103.2,440278.6,711525.5
328763.4,316726.8,710814.6,710784.1,710630.5,711097.4,439793,711520.3
328420.4,316405.6,710793.3,710760.4,710609.9,711076.7,439052.8,711499.9
328517.4,316499,710795.9,710762.6,710612.9,711079.7,438760.4,711502.6
328846.1,316805,710823.3,710791.3,710640.3,711106.9,438800.4,711530.1
328714.3,316673.5,710812,710778.9,710629.3,711096.4,438393.8,711519.4
328337.2,316319.5,710786.8,710751.2,710604.8,711071.4,437632.6,711494.7
328400.4,316385.1,710800.8,710764.7,710618.9,711085.8,437304.7,711508.9
328738.1,316699.3,710829.1,710794.1,710647.1,711114.3,437343.9,711537.3
328690.5,316642.8,710817.5,710781.8,710635.4,711102.6,437027.3,711525.8
328281.9,316254.7,710790.9,710751.6,710609.2,711076,436264.2,711499.5
328256.6,316239.4,710796.5,710755.4,710615,711082.1,435840.2,711505.3
328596.4,316562.4,710826.9,710787.2,710645.6,711112.6,435867.3,711535.9
328640.8,316599.8,710824.9,710785.3,710643.6,711110.4,435662.2,711533.9
328247.4,316226.8,710799.2,710755.9,710617.8,711084.5,434938.3,711508.2
328110.7,316102.8,710792.5,710747.3,710611.5,711078.3,434403.1,711501.9
328411,316387.1,710816.8,710772.2,710635.7,711102.6,434373,711526.5
328585.2,316547.7,710830.1,710786.3,710649.3,711116.1,434298.8,711539.6
328234.5,316214.9,710805.1,710758.5,710624.5,711091.6,433642.8,711515
328018.2,316018.6,710794.3,710744.6,710614.6,711081.6,433037.3,711505.3
328270.8,316258.5,710819.6,710770.1,710639.9,711106.4,432953.7,711530.6
328495.6,316465.1,710832.6,710784.9,710653.2,711119.7,432931.9,711543.5
328196,316179.9,710808.7,710757.7,710629.6,711096.1,432354.7,711520.3
327904,315913.3,710792.2,710736.4,710613.3,711079.8,431684.1,711504.1
328092.9,316095.3,710811.5,710755.6,710633,711099.5,431525.1,711523.6
328390.9,316368.7,710836.9,710782.9,710657.6,711124.6,431573.4,711548.9
328179.8,316165.1,710817.9,710760.8,710639,711105.8,431103.1,711529.9
327835.6,315848.8,710798.6,710734.2,710620,711087.1,430394.1,711511.1
327961.6,315971.3,710816.3,710750.6,710637.6,711104.9,430156.3,711529.2
328268.7,316252.5,710833.8,710771.5,710655.3,711122.5,430192.8,711546.6
328135.9,316118.8,710816,710749.4,710638.3,711105.1,429817.6,711529.2
327754,315762.3,710794.4,710705.9,710617.1,711084.2,429092.4,711508.1
327809.4,315820,710811.7,710710.7,710634.3,711101.1,428779.2,711525.4
328133.1,316125.3,710836.3,710752.8,710658.4,711125.2,428830.6,711549.3
328131.1,316120.7,710833.3,710718.8,710656.1,711122.9,428596.9,711547.2
327734.9,315751.2,710796.6,710332.7,710628.7,711096,427876.6,711519.9
327676,315703.6,710792.1,710002.6,710630.8,711097.9,427448.3,711521.9
327979.8,315989.4,710814,710216,710651.1,711117.8,427456.7,711542
328084,316081.2,710821,710277.5,710656.1,711122.8,427332.5,711547.4
327712.3,315731.9,710792.8,709600.9,710632.9,711099.7,426664.3,711524.1
327558.9,315596,710787.6,709073.6,710628.7,711095.6,426145.3,711519.9
327835.4,315859.2,710809.6,709246,710650.1,711117,426119.9,711541.3
328015.2,316021.4,710817.9,709410.5,710658.4,711125.5,426079.6,711549.4
327685.1,315709.3,710796.1,708764.8,710637.8,711104.6,425478.7,711528.6
327466.8,315516,710791.1,708103.9,710634.1,711100.6,424904.3,711524.8
327681.3,315721.6,710807.1,708183.9,710649.9,711116.8,424807.4,711541.2
327943.7,315963.8,710826.2,708465.4,710668.4,711135.3,424845.1,711559.7
327682.7,315711.9,710805,707903.8,710647.8,711115.4,424330.5,711539.4
327403.5,315456.6,710792.9,707114.8,710636.8,711104,423698.7,711528.1
327569.8,315614.3,710811.3,707089.3,710655.3,711122.4,423539.1,711546.8
327861.7,315881,710827.8,707427.4,710671.3,711138.1,423596.5,711562.8
327681.9,315706.3,710809.4,707010.6,710654.2,711120.9,423185,711545.3
327327.6,315376,710788.9,706126.9,710634.8,711101.4,422501.2,711525.8
327423,315473.5,710802.1,705961.4,710647.8,711114.9,422263.7,711538.9
327751.2,315778.8,710826.3,706329.3,710671.6,711138.9,422350.4,711562.9
327687.2,315710,710819.8,706108.6,710665.5,711132.7,422069.7,711557
327300.7,315348.5,710793.2,705215.8,710640.1,711107.1,421373.8,711531.3
327303.7,315355.2,710797.9,704893.5,710645.3,711112.1,421031,711536.7
327627.3,315659.3,710822.2,705233.4,710668.6,711135.8,421102.2,711560.3
327655,315677.1,710818.9,705183.9,710665.3,711132.3,420921.7,711556.6
327284.2,315328.6,710798.6,704359,710646.3,711113.4,420261.2,711537.7
327207.6,315262.8,710799.4,703910.9,710647.9,711114.6,419838,711539.3
327512.3,315545.3,710820.8,704183.6,710668.8,711136,419871.3,711560.5
327639.6,315656.5,710827.4,704290,710675.4,711143.1,419800.1,711567.1
327265.6,315302,710800.4,703530.9,710649.1,711116.3,419162.9,711540.9
327104.3,315157.4,710795.6,702966.9,710644.6,711111.9,418659.2,711536.8
327368.8,315404.3,710815.9,703152.8,710665.2,711132.4,418642,711557.2
327586.9,315602.1,710832.8,703385.4,710681.9,711148.9,418662.8,711573.8
327283.5,315311.5,710811.1,702768.8,710661.6,711128.3,418118,711553.6
327027.2,315074.1,710795.3,702085.3,710646.2,711113.1,417526.2,711538.3
327247.9,315281.3,710815.8,702174.2,710666.3,711133.4,417454,711558.1
327526.5,315536.8,710835.8,702481.5,710685.6,711153,417529.4,711577.8
327274.6,315297.1,710813.9,701991.1,710664.6,711131.9,417065,711556.6
326949.8,314993.5,710794.6,701234.5,710646.7,711113.6,416424.3,711538.1
327109.1,315146.8,710812.5,701206.4,710664.3,711131.3,416273.9,711556.3
327400.7,315418.1,710830.8,701535.4,710681.9,711148.9,416357.8,711574.2
327254.4,315274.8,710818.3,701222.2,710670.2,711137.1,416011.7,711562.4
326904.6,314947.3,710801.5,700446.5,710653.8,711120.9,415357.1,711546.3
326962.1,315006.3,710808.5,700265.8,710660.8,711127.9,415098.6,711553.4
327291.3,315313.9,710834.6,700618.4,710686.6,711153.6,415209.1,711579.4
327239.1,315258.3,710827.8,700465.5,710680.1,711147.3,414972,711572.6
326850.8,314894.4,710806.6,699677.9,710659.7,711126.9,414304.7,711552.1
326845.5,314896,710816.7,699387.4,710670,711136.9,413981.8,711562.1
327170.7,315202,710839.3,699705.9,710692.3,711159.1,414068.7,711584.9
327213.4,315237.4,710835.8,699702.5,710688.1,711155.6,413930.5,711581.3
326813.8,314862.2,710807.3,698937.2,710660.6,711127.9,413270.4,711553.4
326702,314765.3,710803.8,698486.4,710658.2,711125.1,412835.9,711550.6
327011.5,315056.9,710831.4,698757.9,710685.6,711152.4,412901.1,711578.2
327183.4,315213.3,710843.9,698923.7,710697.5,711164.6,412898.7,711590.3
326832.2,314880.5,710819.2,698250.8,710673.7,711140.8,412310.5,711566.4
326628.1,314695.4,710811.3,697677.8,710666.1,711133.1,411788.7,711558.5
326879.8,314933.2,710831.4,697849.7,710685.9,711152.9,411780.8,711578.4
327115.7,315150.5,710847.4,698105.6,710701.8,711169,411836.5,711594.4
326821.3,314867.1,710824.5,697544.1,710679.6,711146.8,411325.1,711572.2
326558,314620.8,710811.8,696878.3,710667.3,711134.4,410748.9,711560.1
326759.9,314813.9,710829.6,696944.6,710684.8,711152.2,410672.9,711577.8
327028.7,315061.6,710847,697259.1,710702.1,711169.5,410763.8,711595
326812.5,314853.1,710829.3,696842.6,710684.6,711152,410348.6,711577.6
326475.8,314542.3,710808.1,696096.6,710664.3,711131.6,409709.8,711557.3
326612.9,314676.7,710822,696046.7,710677.8,711145.6,409556.2,711570.9
326945.6,314987.2,710850.8,696423.7,710706.4,711173.9,409701.6,711599.4
326820.8,314860.4,710840.1,696168.6,710696,711163.2,409400.7,711588.9
326444.5,314505.6,710814.8,695385.4,710671.6,711138.7,408733.8,711564.7
326490.1,314553,710823.3,695190.7,710679.6,711146.8,408475.7,711572.9
326826,314868.3,710850.9,695557.1,710706.8,711174.1,408611.6,711600.2
326824.2,314863,710850.4,695485,710706.9,711174.3,408447.5,711599.9
326429.2,314490.6,710821.6,694711.2,710678.9,711146.2,407791.9,711572.2
326390,314459.4,710825.8,694383.7,710682.9,711150.1,407447.6,711576.5
326711.7,314762.7,710853.3,694706.2,710709.6,711177.1,407554,711603.4
326780.2,314822.5,710850.9,694750.6,710707.6,711174.8,407464.2,711601.3
326408.6,314471,710827.4,694036.4,710684.1,711151.7,406855,711577.9
326278.9,314354.9,710823.3,693568.6,710680.6,711148.1,406413,711574.5
326569.2,314629.8,710846.1,693817.1,710703.1,711170.7,406468.2,711596.9
326739.3,314785.5,710855.3,694005.9,710711.8,711179.4,406486.6,711606.1
326407.1,314471.3,710834.3,693379.4,710691.8,711158.9,405939.3,711585.9
326191.6,314272.3,710823.8,692787.4,710681.4,711148.6,405414.8,711575.6
326432.8,314500.2,710844.6,692942.6,710702.4,711169.7,405408.6,711596.3
326664.6,314714.4,710858.2,693218.8,710715.6,711182.9,405486.6,711609.5
326374.5,314438.8,710833.1,692696.3,710691,711158.4,405006.5,711584.9
326102.7,314190.3,710822.3,692031.8,710680.4,711147.9,404438.7,711574.5
326296,314374.4,710842.2,692085.4,710700.4,711167.8,404366.2,711594.4
326585,314642,710858.8,692423.2,710717,711184.2,404486.2,711611
326399.3,314458.9,710843.3,692065.8,710701.4,711168.9,404125.2,711595.6
326054.7,314137.8,710822,691316.4,710680.2,711147.4,403491.8,711574.2
326166.6,314251.6,710835.8,691233.8,710693.9,711161.4,403323.5,711587.9
326481.6,314547.9,710854.9,691593.1,710713.4,711180.8,403458.7,711607.3
326384.6,314446.8,710844.9,691388.1,710704.1,711171,403206.3,711597.9
326013.9,314098.9,710827.2,690629.3,710686.1,711153.5,402575.1,711580.6
326039.5,314129.6,710835.9,690409.6,710694.4,711162.2,402316,711589.2
326362.6,314435.5,710857.1,690755.5,710715.5,711183.2,402444.6,711610.4
326377.5,314445.1,710856.9,690719.8,710716.1,711183.3,402313.3,711610.2
325999,314087.5,710837.6,689978.8,710697.2,711164.1,401693.8,711591.3
325919.8,314018,710835.5,689599.8,710695,711162.6,401320.1,711589.3
326235.7,314318.5,710859.6,689911.4,710718.8,711186.4,401428.8,711613.3
326334,314406.9,710859.4,690002.8,710718.6,711185.9,401376.4,711613.1
325962.5,314056,710834.5,689306.3,710694.1,711161.6,400780.8,711588.8
325821.4,313929.4,710834.5,688824.6,710694.3,711161.4,400344.9,711588.9
326087.8,314179.8,710851.8,689046.1,710710.9,711178.3,400385.2,711605.8
326285.5,314361.6,710861.9,689275.4,710721.3,711188.8,400442.1,711616.2
325966.4,314057.3,710839.4,688687.6,710698.9,711166.2,399932.4,711593.8
325739.5,313849.6,710833.2,688093.1,710693.3,711160.4,399420.2,711588
325960.5,314064.8,710852.1,688224.9,710712.3,711179.3,399403.5,711607
326236.6,314327.5,710871.4,688554.2,710731.1,711198.4,399534,711625.8
325993.9,314095.8,710855.5,688105.4,710715.1,711182.6,399122.5,711609.9
325682.2,313804.3,710839.1,687406.1,710698.7,711166.5,398535.5,711593.8
325845.9,313964.3,710854.3,687422.2,710714.3,711181.7,398446.9,711608.9
326127.3,314225.8,710864.9,687756.5,710724.7,711192.3,398571.2,711619.6
325994.8,314097.5,710860.8,687475.3,710720.9,711188.4,398286.1,711615.6
325637.2,313762.4,710842.9,686726.3,710703.5,711170.6,397668.8,711598.2
325685.1,313812.8,710844.9,686575,710705.1,711172.6,397453.2,711600.1
326019.7,314131.5,710869.8,686962.1,710729.7,711197.7,397622.4,711625.1
325965.5,314072.7,710863.2,686825.3,710722.9,711190.8,397428.5,711618
325571.5,313696.4,710838.3,686048.2,710698.1,711165.9,396785.4,711593.2
325575.6,313702.1,710843.1,685793.7,710703.4,711171,396508.3,711598.8
325919.4,314026.9,710869.6,686160.3,710729.9,711197.3,396666.8,711624.9
325963.5,314062.8,710869.4,686174.3,710729.1,711197.1,396576.6,711624.9
325569.4,313687.9,710845.9,685433.6,710705.8,711173.8,395961.4,711601.7
325495.1,313623.3,710850.5,685054.3,710710.8,711178.6,395606.6,711606.1
325812.6,313927.4,710874.8,685370.5,710735.5,711203.1,395727.9,711630.9
325925.2,314030.7,710872.9,685499.7,710733.3,711200.6,395713,711628.9
325557.9,313679.3,710850.9,684831.2,710711.3,711178.9,395150.1,711607.3
325385.8,313521.6,710846.4,684317.3,710707.3,711174.4,394697.4,711602.8
325659.2,313784.2,710869.4,684543.1,710730.4,711197.5,394758.3,711626
325871.3,313982.2,710880.4,684807.5,710741.5,711208.5,394846.8,711636.9
325577.4,313696.9,710851.8,684259.6,710719.4,711186.8,394374,711614.8
325321.3,313456.1,710827.6,683640.6,710706.3,711173.8,393838.3,711601.4
325540.6,313669.9,710858.2,683941.5,710727.9,711195.2,393827.8,711623.4
325808.9,313925.6,710879.9,684350.8,710741.6,711208.6,393962.8,711637.4
325589.2,313712.7,710857.8,683931.1,710727.9,711195.1,393594.5,711623.3
325249.1,313388.7,710842.6,683282.7,710708.4,711175.5,392991.5,711603.8
325380.3,313514.2,710849,683522.9,710717.4,711184.5,392876.1,711612.1
325709.8,313825.3,710875,684106.2,710740.7,711207.7,393066.9,711635.9
325573.7,313689.5,710855.8,683833.1,710726.4,711193.9,392796,711621.6
325203.2,313338,710842.2,683141.1,710707.1,711174.3,392173.3,711602.8
325252.8,313388.8,710849.4,683222.4,710713.4,711180.6,391961.5,711608.9
325596.6,313713.4,710865.9,683852.2,710734.9,711202.3,392143.8,711630.3
325583.4,313696.9,710862.5,683804.6,710733,711200.3,392007.8,711628.7
325183.2,313315.5,710844.4,683075.9,710709,711176.1,391381.2,711605.1
325152.5,313293.3,710850.3,682994.7,710712,711178.8,391078.4,711607.7
325462.1,313590,710858.3,683562.8,710728.1,711194.6,391212.2,711623.5
325545.7,313666,710855.4,683735.3,710729.9,711196.7,391176.1,711625.1
325164.8,313300.4,710842.8,683030.3,710708.4,711174.9,390585.8,711604.1
325044.3,313189.4,710844.3,682780.8,710705.1,711172,390192.2,711601.4
325353.2,313484.8,710862.9,683285.6,710729.3,711196.7,390313.8,711625.6
325512.6,313632.6,710855.6,683644.3,710734.8,711201.9,390360.2,711629.9
325148,313285.6,710843.3,683032.1,710710.3,711177.4,389812.8,711605.6
324942.4,313093.7,710841.1,682624.6,710702.1,711169.9,389331.7,711598.5
325205.2,313346.9,710861.6,683008.9,710724.2,711191.7,389382,711620.6
325442.4,313573.2,710864.1,683484.1,710736.7,711203.5,389500.3,711632
325116.1,313260.7,710844,683095.2,710709,711175.7,389013.2,711604.8
324810.8,312975.3,710831.4,682565.9,710692.5,711159.7,388438.8,711588.5
324997.8,313159.5,710851.1,682797.9,710712.3,711179.6,388401.5,711608.6
325298.7,313444.3,710866.7,683315.1,710729.6,711197.1,388570.3,711626.3
325076.2,313227.7,710848.2,683065.8,710710.3,711177.4,388204.5,711606.7
324727.6,312901.4,710833.9,682458.2,710695.1,711162.2,387598.7,711591.3
324848.5,313023.8,710846.4,682535.1,710706.9,711174.1,387465.1,711603.6
325187.2,313349.1,710868.5,683072.8,710729.4,711196.6,387661,711625.8
325063.5,313224.9,710855.4,682971.7,710716.6,711183.8,387411.3,711613.3
324664.5,312842.4,710830.8,682298.3,710692.3,711158.7,386767.2,711588.8
324711.3,312892.8,710844.7,682231.1,710705.7,711172.8,386554.6,711602.6
325030.4,313198.6,710863.5,682712.5,710724.8,711191.8,386715.1,711621.2
325025.9,313193.2,710860.9,682771.1,710722.1,711188.6,386595.3,711618.4
324595.3,312782.7,710833.6,682079.1,710694.6,711161.1,385948.4,711590.9
324548.2,312745.3,710838.5,681841.6,710699.8,711166.8,385628.9,711596.2
324868.1,313053.7,710857.3,682276.1,710718.9,711186.1,385769,711615.8
324964.8,313146.5,710861.1,682476.4,710722.6,711189.9,385756.9,711619.8
324570.7,312772.6,710840.4,681843.9,710701.8,711169.1,385169.4,711598.9
324412,312627.4,710836,681434.2,710697.5,711164.6,384730.6,711594.2
324698.7,312908,710855.1,681776.8,710716.6,711183.4,384811.6,711613.3
324890.2,313091.7,710865.8,682099.4,710727.5,711194,384891.2,711623.9
324544.6,312760,710845.5,681558.1,710707.4,711173.9,384374.7,711603.9
324327.6,312558.8,710841.4,681050.7,710702.9,711170.1,383886.8,711600.4
324550.2,312778.1,710853,681278.8,710713.9,711181.1,383894.5,711611.4
324819,313034.2,710869,681702.7,710729.7,711197.1,384049.7,711627.1
324548.8,312775,710853,681300.3,710714.3,711181.3,383636,711611.4
324225.8,312471.4,710836.2,680662.7,710697.4,711164.1,383056.8,711594.9
324413.3,312655.1,710851.1,680798.5,710712.6,711179.6,383014.3,711610.1
324753.5,312976,710872.6,681300.1,710734.3,711201.1,383231.8,711631.6
324586.3,312809.6,710859.8,681067,710721.1,711188,382939.7,711618.3
324212.6,312452.9,710837.8,680377.6,710699.3,711166.3,382327.4,711596.3
324338.5,312577.4,710854.1,680402.1,710715.5,711182.5,382215.8,711612.4
324705.7,312927.3,710877,680925.9,710738.4,711205.4,382450.3,711635.3
324633.3,312853.4,710867.5,680859,710728.6,711195.8,382280.4,711626
324241.5,312480.7,710846.9,680164.9,710708.1,711175.1,381683.3,711605.4
324267.7,312510.3,710853.6,680027.3,710714.6,711181.5,381467.7,711612.1
324659.2,312887.2,710882.9,680551.4,710744.2,711210.9,381716.1,711641.4
324697.4,312919.2,710879.2,680652.5,710740.7,711207.9,381668.9,711637.8
324264.3,312502.3,710847.2,679944.2,710709,711176.1,381056.6,711606.6
324198.1,312445.4,710851.1,679663.9,710712.9,711179.4,380752.1,711610.1
324543.2,312778.6,710874.6,680112.6,710736.7,711203.2,380948,711633.4
324700.2,312926.5,710881.5,680374.1,710743.1,711210.1,381022.7,711640.5
324313.8,312555.5,710857.4,679749.6,710719,711185.9,380482.8,711616.4
324145.6,312400.6,710855.5,679316.3,710716.9,711184.3,380077.5,711614.5
324458.2,312700.5,710880.9,679679.6,710742.3,711209.4,380220.7,711639.7
324698.2,312926.8,710890.5,680060.4,710751.4,711218.6,380377.8,711649.3
324353.7,312595.4,710865.8,679536.1,710726.5,711193.8,379907.7,711624.4
324084.5,312343.7,710849.5,678962.4,710710.6,711177.8,379405.6,711608.3
324347.4,312597.9,710872.1,679220.8,710733.8,711200.7,379484.3,711631.2
324675,312907.5,710895.1,679709.4,710756.4,711223.3,379726.8,711654.4
324416.5,312656.2,710874.6,679331.9,710736,711202.7,379364.8,711633.7
324076,312332.8,710855,678662.1,710716.1,711183,378803.3,711613.9
324249.9,312500.8,710869.1,678766.6,710729.9,711196.7,378774.8,711627.4
324621.2,312853.3,710894.9,679299.6,710755.9,711223,379051.9,711653.6
324487.7,312722.7,710884.9,679111.6,710746.5,711212.9,378831.3,711644.1
324070.7,312326.8,710859.6,678366.4,710721.1,711188.1,378217.4,711618.8
324145.4,312401.1,710866.8,678308.1,710728.4,711195.4,378076.9,711626
324520.8,312759.4,710891.2,678826,710752.3,711219.1,378337.3,711650.3
324482.8,312717.7,710886.6,678796.7,710747.9,711214.6,378228.5,711645.9
324047.4,312298.2,710859.8,678043.7,710721.3,711188.3,377618.7,711619.1
324038.1,312294.7,710865.4,677832.3,710726.3,711193.6,377382.1,711624.7
324418.2,312659.9,710892.4,678319.3,710753.6,711220.6,377628.9,711651.9
324475.2,312709.8,710891.6,678441.1,710752.5,711219.7,377622.6,711650.9
324031.1,312288.7,710862.2,677709.5,710723.3,711190.8,377025.8,711622
323928.6,312201.2,710866.3,677348.3,710727.2,711194.4,376695.6,711625.2
324267.8,312530.3,710886.8,677744.2,710747.4,711214.6,376876,711645.7
324438.3,312690.7,710895.1,678012.5,710755.6,711222.9,376975.1,711654
324036.7,312305.4,710869.9,677365.3,710730.8,711197.9,376445.9,711629.1
323810.4,312092.6,710860.5,676829.6,710721.3,711188.2,375993.1,711619.7
324107.7,312379.2,710885.4,677133,710746.4,711213.4,376115.7,711644.9
324366.3,312625.6,710900.2,677519.5,710761.2,711228,376298.2,711659.6
324035.6,312307.6,710877.3,677001.8,710738.2,711205.3,375856.5,711636.6
323729.2,312015.1,710861.1,676353.9,710722.5,711188.8,375320.9,711620.6
323947.3,312222.1,710876.4,676522,710737.8,711204.3,375342.2,711635.7
324288.8,312545.3,710898.4,677001.2,710759.3,711226.6,375588.3,711657.7
324047.4,312312.1,710882.9,676645.8,710743.9,711211.2,375256.4,711642.3
323654.5,311938.9,710857.8,675904.3,710719.4,711186.4,374653.1,711617.5
323820.1,312102.3,710875.2,675958.2,710736.4,711203.4,374599.5,711634.6
324203.5,312471.4,710902.1,676483.2,710763.6,711230.5,374869.6,711661.6
324064.5,312336.4,710887.3,676294.7,710748.9,711215.8,374646.2,711646.9
323643.9,311936.7,710862.7,675529.8,710723.9,711191.3,374034,711622.3
323705.7,312003.2,710872.7,675423.9,710733.6,711200.9,373876.8,711632.1
324114.7,312397,710901.9,675952.2,710762.8,711229.9,374159.7,711661
324108,312388.8,710898.6,675963.9,710759.7,711226.2,374085.3,711657.8
323655.4,311956.8,710870.6,675197.1,710731.4,711198,373472.5,711629.9
323595.7,311905.6,710865.2,674909.7,710726.6,711193.1,373184.5,711624.6
323977.5,312276.3,710889.1,675376.9,710750.6,711217.3,373424.3,711648.6
324105,312399.4,710900.7,675579.2,710761.9,711228.9,373491.9,711660.1
323672.4,311986.9,710874.8,674870.8,710736.1,711203.3,372923.9,711634.5
323517.2,311844.8,710870.2,674444.9,710731.3,711198.5,372550.8,711629.6
323873.3,312186.1,710897.4,674852.1,710758.4,711225.4,372753.9,711657.1
324096.4,312393.3,710910.1,675181.5,710771.2,711238.3,372907.1,711669.8
323715.9,312028.8,710883.9,674570.4,710745,711212.3,372406.4,711643.4
323474.4,311804.3,710873.6,674021.1,710734.6,711201.7,371949.3,711633.2
323771.8,312094.5,710900.2,674320.7,710760.8,711228.3,372077.5,711660.2
324068.3,312377.9,710917.2,674763.9,710778.2,711245.8,372307,711677.2
323760.9,312081.6,710893.8,674301.9,710755.1,711222.6,371909.9,711653.5
323436.7,311773.8,710875.9,673643,710737.3,711204.6,371380.9,711635.8
323680.3,312008.6,710901.1,673832.3,710762.2,711229.5,371444.3,711661
324038.7,312349.9,710921.3,674343.1,710782.2,711249.4,371725.7,711681
323836.4,312152.7,710905.1,674054.2,710766.1,711233.4,371454.4,711664.9
323450.2,311783.9,710884.8,673330.6,710745.9,711213.4,370885.3,711645.1
323593.9,311926.1,710900.1,673358.8,710761.2,711228.6,370837.2,711660
323991,312305.1,710925.7,673902.6,710786.6,711253.9,371147.2,711685.7
323902.8,312213.2,710914.5,673792.3,710775.3,711242.6,371002.9,711674.6
323492.3,311820.2,710894.1,673052.1,710754.8,711222.2,370428.8,711654
323527.3,311859.5,710898.9,672914.6,710759.9,711227.4,370264.9,711659.3
323936.2,312252.4,710926.9,673450.9,710787.8,711255.6,370571.9,711687.2
323974.8,312285.1,710927.9,673533.4,710788.6,711256.1,370570.1,711687.7
323547.1,311872.7,710905.3,672807.3,710765.8,711233.1,370011.3,711665.4
323457.8,311790.8,710900.3,672486.7,710760.8,711227.9,369725.8,711660.6
323813.1,312131.7,710923.6,672934.7,710784.3,711251.3,369970.3,711683.9
323953.1,312260.8,710931.1,673167.8,710791.3,711258.6,370072.8,711690.8
323530.9,311856.4,710906,672483,710766.3,711233.6,369540.3,711665.9
323370.2,311707.3,710901.6,672037.5,710761.8,711229.1,369176.9,711661.5
323694.6,312017.5,710920.6,672390.9,710780.9,711248.3,369354.4,711680.5
323925.6,312237.7,710931.4,672745.3,710791.6,711259.6,369540.3,711691.3
323560.6,311885.3,710905.3,672173.1,710765.1,711233.5,369085.5,711665.2
323290.1,311630.9,710893.7,671580.4,710754.1,711221.8,368618.1,711653.6
323562.6,311892.3,710917.3,671832.1,710777.4,711244.9,368733.1,711677.2
323867.8,312179.1,710933,672275.5,710793,711260.5,368982,711692.9
323572.9,311892.1,710910.3,671834.4,710770.8,711237.9,368618.6,711670.1
323220.8,311561.1,710894.6,671141,710755,711222.2,368087.1,711654.3
323412.1,311751,710914.3,671252.4,710774.7,711241.8,368109.9,711674.1
323762.2,312085.3,710934.8,671737.8,710795.7,711262.9,368386,711695.3
323567.4,311895.1,710917,671464.1,710778,711245.3,368136.2,711677.4
323148.5,311499.9,710892.7,670698.4,710753.3,711220.6,367545.6,711652.6
323256.2,311609.1,710908.8,670661.8,710769.3,711236.8,367462.2,711668.9
323624.5,311957.4,710929.6,671152.1,710790.3,711257.2,367735.9,711689.8
323547.4,311879.2,710920.5,671061.9,710781.4,711248.3,367611.6,711680.3
323115.6,311470.8,710896.8,670292.8,710757.4,711224.7,367025.8,711656.8
323152.6,311515.3,710914.2,670126.3,710775.1,711242.2,366866,711674.8
323524.6,311870.9,710940.7,670597.3,710801.3,711268.6,367134.1,711700.8
323549.3,311889.2,710932.6,670658.4,710792.8,711260.4,367114.3,711692.4
323096.5,311459.1,710903.6,669902.8,710764.3,711231.8,366535.1,711664
323001.5,311376.5,710906.3,669548.9,710766.8,711234.1,366240.4,711666.4
323363.1,311724.5,710932.7,669967.8,710793.4,711260.8,366475.3,711693.1
323529.2,311880,710938.5,670219.4,710799,711266.8,366598.8,711699.2
323116.8,311488.3,710912,669548.5,710772.3,711240.1,366081.2,711672.3
322925.5,311313.5,710904.3,669054.4,710765.2,711232.1,365688.4,711664.4
323268.6,311638.8,710933.3,669410.1,710793.8,711261.1,365885.8,711694.1
323519.3,311869.3,710945.8,669785.3,710806.3,711273.9,366092.4,711706.3
323178.4,311543.4,710922.5,669249.7,710782.4,711249.9,365671.9,711682.4
322889.4,311274.6,710906.6,668626.6,710766.6,711234.1,365191.1,711666.5
323132.8,311509.2,710923.4,668826.9,710783.8,711251.1,365271.3,711683.5
323457.4,311812.8,710943.9,669297.2,710804.2,711271.7,365545.3,711704.3
323200.3,311564.5,710926.7,668923.8,710786.8,711254.1,365239.6,711687.1
322830.9,311218,710906.8,668207.9,710767,711234.1,364700.1,711667
323004.5,311388,710925.8,668279.4,710786.1,711253.1,364704.1,711686.1
323365.9,311729.5,710948.7,668778,710809,711276.4,364999.6,711709.4
323187.6,311551.9,710929.1,668532.2,710789.7,711256.9,364774.5,711689.8
322756.4,311143.4,710905.8,667745.9,710766.1,711233.4,364183.3,711665.8
322812.3,311201.8,710913.4,667630.9,710773.7,711240.7,364050.5,711673.1
323190.9,311559.9,710940.6,668119,710801.3,711268.5,364332.8,711700.9
323144,311508.1,710934.4,668062.9,710794.6,711261.9,364236.7,711694.4
322688.9,311076.9,710906.8,667272.8,710766.6,711234.1,363635.3,711666.8
322656,311052.2,710911.5,667009.5,710771.8,711239.2,363401.8,711671.9
323043.9,311423.2,710944.1,667483.1,710804.6,711271.7,363680.5,711704.4
323108.6,311480.4,710940.1,667593.6,710800.5,711267.7,363699.4,711700.7
322665.4,311061.6,710915.1,666853.3,710775.3,711243,363141.3,711675.8
322508,310920.8,710910.1,666415.8,710769.9,711237.4,362787.2,711670.4
322845.3,311245.7,710936.4,666790.4,710796.3,711263.8,362990.4,711696.3
323004.3,311393.6,710942.7,667039.4,710802.9,711270.4,363108.8,711702.9
322581,310994.7,710914.2,666363,710774.4,711241.8,362587,711674.8
322349.4,310783.8,710908.6,665801.6,710768.6,711235.7,362152.2,711668.8
322616.1,311035.1,710929.1,666042.4,710789.1,711256.3,362254.2,711689.3
322874.4,311271.1,710945.9,666393.5,710806,711273.1,362435.7,711706.5
322517.7,310928.1,710920.8,665824.1,710780.9,711247.6,361979.2,711680.8
322172.8,310607.4,710903.4,665101.5,710763.3,711230.3,361416.2,711663.7
322378.9,310807,710921.9,665204.6,710781.6,711249,361421.4,711682.4
322705.6,311116.2,710942.9,665623.4,710802.5,711269.8,361648.8,711703.4
322454.9,310879.9,710925.4,665233.4,710785.3,711252.4,361315.8,711685.7
322052.1,310505.8,710904.9,664458.5,710764.8,711232,360719,711665.3
322169.4,310623.2,710915.9,664425.7,710775.3,711243.1,360627.3,711676
322532.9,310968.6,710938.1,664885.6,710797.5,711265.1,360877.2,711698.1
322412.4,310850.7,710927.1,664693.4,710786.9,711254.3,360684.6,711687.6
321967.7,310433.8,710900.7,663883.1,710760.6,711227.6,360065.3,711660.9
321996.4,310467.9,710906.1,663700.5,710765.5,711232.8,359874.2,711666.3
322380.4,310831.1,710931.8,664164.3,710791.1,711258.4,360130.5,711692.1
322376.6,310826,710930.4,664153.9,710789.9,711256.9,360061.1,711691.1
321928.1,310405.3,710910.1,663363.6,710769.8,711236.8,359456.1,711670.8
321827.4,310318.3,710905.9,662989.1,710765.3,711232.4,359121.8,711666.2
322183.5,310658.3,710933.2,663375.4,710792.8,711259.8,359313.8,711693.8
322258.3,310724.8,710931.4,663466.7,710790.8,711257.9,359293.6,711692.1
321801.1,310298.1,710902.6,662683.1,710761.6,711228.9,358673.1,711662.7
321618,310134,710898.5,662179.8,710757.6,711225.1,358251.8,711658.4
321931.7,310427,710926.1,662495.8,710785.5,711253,358392.5,711686.6
322136.9,310619.6,710938.3,662769.3,710797.7,711265.3,358504.7,711698.7
321754.4,310258,710914.8,662129,710774,711241.4,357986.1,711675.3
321483,310011.5,710898,661496.3,710757.2,711224.6,357465.6,711658.5
321753.7,310269.8,710917,661706.8,710776.2,711244,357528.3,711677.6
322049.6,310540.9,710931.1,662087.4,710790.4,711257.5,357713.8,711691.6
321738,310239,710912.4,661600.3,710771.4,711239,357307.6,711672.8
321370.3,309900.1,710896.6,660869.4,710755.4,711223.5,356730.3,711656.9
321568.7,310092.2,710911.7,660945.6,710770.6,711238.1,356701.3,711671.9
321930.8,310432,710930.2,661397.4,710788.8,711256.8,356936.9,711690.4
321735.8,310241.4,710921.3,661096.5,710780.1,711247.6,356659.8,711681.3
321321,309858,710899.3,660316.9,710758.4,711225.4,356044,711659.4
321466.7,310003.5,710917.6,660297,710776.4,711243.4,355951.8,711677.6
321853.3,310362.3,710937.3,660787.4,710796.1,711263.3,356211.5,711697.6
321784.7,310292,710927.1,660681.5,710785.9,711252.9,356064.9,711687.4
321376.2,309908.1,710902.4,659930.6,710760.8,711228.2,355469.9,711662.5
321457.3,309990.7,710917.6,659822,710775.8,711243.2,355327.8,711677.3
321911,310414.6,710948.1,660400.3,710806.6,711274,355661.3,711707.9
322001.8,310484.9,710944.5,660557.8,710802.9,711270,355699.5,711704.7
321619.6,310113.8,710918.6,659914.2,710777,711244.4,355193.3,711678.9
321605,310098.5,710921.6,659696.4,710780.1,711247.1,354983.5,711681.6
322064.3,310526.2,710953.3,660264.1,710811.8,711278.7,355315.3,711713
322297.4,310731.9,710963.9,660625.9,710823,711290,355506.6,711724.4
321904.1,310349.6,710932.3,660031.8,710791.1,711258.4,355029,711692.8
321744.1,310203.2,710925,659636.3,710783.8,711250.6,354702,711685.5
322126.2,310549.3,710954.6,660085.9,710813.5,711280.4,354968.4,711715.3
322415.1,310804.8,710967.8,660533.3,710826.9,711293.7,355226.9,711728.4
322074,310475.1,710944.8,660040.2,710803.6,711270.6,354841.5,711705.3
321796.8,310214.3,710931.1,659477.1,710789.5,711256.6,354410.8,711691.2
322065.5,310463.4,710949.8,659737.9,710808.3,711275.6,354540.2,711710.1
322406.8,310782.9,710969.8,660229,710828.7,711295.9,354837.3,711730.6
322125.1,310507.5,710948.1,659833.3,710807.1,711274.5,354519.6,711709.3
321735.6,310138.3,710926.1,659131.4,710784.5,711251.7,353991.2,711686.8
321922.9,310316.9,710940.6,659236.5,710799.2,711266.4,354018.6,711701.2
322314.2,310688.3,710963.3,659764.4,710822.2,711289.5,354338.6,711723.9
322159.2,310535.5,710953.5,659563.6,710812.5,711279.6,354161.9,711714.6
321718,310124.5,710926.7,658803.2,710785.6,711252.8,353596.5,711687.6
321804.3,310212.4,710938.5,658754.3,710797.3,711264.8,353522.2,711699.2
322227.9,310612.9,710965.7,659307,710824.8,711292.4,353859.7,711726.9
322202.4,310594.2,710957.1,659288.3,710816.2,711283.8,353802.5,711717.9
321755.5,310166.1,710934.1,658547.7,710792.9,711260.1,353257.1,711694.6
321742.3,310151.1,710940,658351.8,710798.4,711266,353080.6,711700.1
322164,310549.2,710964.6,658882.2,710823.4,711290.9,353398.9,711725.3
322271.1,310642.4,710968.5,659066.1,710826.8,711294.8,353485.1,711729.1
321811.4,310200.3,710941,658357,710799,711267.3,352948,711701.4
321691.4,310084.1,710938.8,658007.1,710796.9,711264.6,352659.9,711699.2
322097.4,310464,710965.1,658482.7,710823.6,711290.7,352936.8,711725.3
322317.9,310666.9,710976.7,658828.6,710835.2,711302.4,353125.5,711737.1
321915.8,310279.3,710949.8,658230.2,710808.3,711275.6,352661.6,711710.3
321708.4,310081.1,710944.8,657762.9,710803.2,711270.3,352292.8,711705.4
322026.5,310374.7,710964.3,658113.4,710822.5,711289.9,352470.8,711724.6
322282.1,310607.3,710976.5,658524.3,710835.1,711302.2,352689.7,711736.4
321911.1,310249.8,710952.5,658000.2,710811.1,711278.4,352260.4,711712.8
321568.2,309923.1,710935.9,657345.3,710794.6,711261.8,351742.3,711696.6
321819.1,310164.1,710958.9,657556.1,710817.5,711284.5,351831.9,711719.4
322180.2,310508.8,710982.5,658071.7,710840.8,711308.2,352152.8,711742.9
321943.5,310290.4,710964.7,657736.3,710822.7,711290.2,351895.6,711725.1
321536.7,309916.4,710941.4,657012.8,710799.6,711267.1,351374.7,711702
321711.6,310083.3,710957.9,657098.9,710816.2,711283.7,351407.8,711718.6
322119.3,310472.3,710981.6,657664.9,710840.1,711307.3,351765,711742.4
322011.8,310364.8,710975.5,657554.6,710833.9,711300.8,351659.5,711736.4
321580.8,309952,710950.6,656829.6,710808.8,711276.2,351124.7,711711.4
321663.5,310032.8,710957.7,656786.2,710816,711283.5,351053.9,711718.4
322145.3,310486.7,710990.2,657429.6,710848.4,711315.7,351465.8,711750.8
322197.6,310527.7,710987.5,657558.1,710845.7,711313.3,351521.5,711748.1
321777.3,310124.8,710960.1,656889.8,710818.3,711285.8,351027,711720.6
321814.5,310161,710968.5,656766.8,710827.1,711294.3,350917.7,711729.3
322279.8,310598.3,710994.8,657390.9,710853.4,711320.7,351320.3,711755.9
322454,310748.3,711002.6,657721.5,710861.3,711328.4,351528.3,711763.4
322038.2,310339.3,710974.4,657118.3,710833,711300.4,351093.5,711735.4
321938,310242.5,710975.7,656824.6,710833.7,711301.2,350877.2,711736.3
322314.9,310594.7,710995.4,657316.8,710853,711320.6,351188.2,711755.6
322568.2,310822.6,711007.5,657744.4,710865.8,711332.8,351463.4,711768.2
322195.4,310456.8,710987,657212.3,710845.3,711312.4,351082.2,711747.7
321945.1,310222.3,710978.6,656711.6,710836.5,711303.8,350725.2,711738.9
322248.3,310511.6,711000.4,657057.4,710858.8,711326.1,350935.6,711761.2
322548.1,310790.5,711007.5,657529.6,710865.8,711333.2,351220.9,711768.3
322217.4,310471.8,710984,657082.6,710842.6,711310.1,350874.4,711745.2
321854.1,310131.1,710967.8,656425.1,710825.6,711293.2,350403.8,711728.9
322073.5,310345.3,710987.9,656606.5,710845.9,711313.3,350510.6,711748.8
322442.8,310691.3,711012,657148.4,710869.8,711337.3,350864.7,711772.8
322196.2,310460.5,710989.7,656840.9,710847.8,711315.1,350626.6,711750.3
321758.7,310056.1,710966.4,656082.1,710824.5,711291.8,350091,711727.3
321881.5,310179.7,710983.8,656103.2,710841.8,711308.8,350098,711744.7
322266.6,310547.2,711008.7,656639.6,710867.3,711334.1,350453.7,711769.7
322143.9,310430.8,710995,656501.6,710853.1,711320.2,350339,711755.6
321681.3,309993.6,710971.1,655720.9,710829.1,711296.1,349793.5,711731.5
321719.1,310037.6,710980.1,655576.1,710838.1,711305.1,349682,711740.4
322133.8,310435.7,711005.1,656111.3,710863.1,711330.2,350030.4,711765.7
322151.3,310447.8,711003.4,656180,710861.3,711328.5,350059.4,711764
321664.3,309986.3,710979.1,655413.6,710837.3,711304.2,349522.7,711739.8
321572.1,309904.5,710979,655095,710837.3,711303.9,349288,711739.8
321953.6,310266.5,711002.1,655562.8,710860.3,711327.1,349582.4,711762.8
322092.9,310389.6,711006.4,655798.3,710864.9,711332.1,349719.9,711767.3
321640.2,309955.8,710980.5,655095.3,710838.6,711306.1,349217.7,711741.3
321467.8,309800.2,710980.8,654638.9,710838.5,711305.7,348891.5,711741.1
321824.7,310143.3,711005.3,655032.1,710863.3,711330.4,349134.8,711766.1
322073.5,310371.2,711013.5,655417.6,710871.6,711339.3,349371.7,711774.4
321689.7,309998.6,710987.1,654845.3,710845.3,711312.8,348957.2,711747.9
321414.9,309747.4,710975.1,654258.3,710833.2,711300.3,348544.7,711735.4
321726.5,310047.6,710999.8,654562.6,710857.5,711325,348739.3,711760.3
322073.4,310375.5,711020.3,655074.5,710878.3,711345.8,349072,711781.3
321777.4,310090.7,710997.5,654666.1,710855.4,711322.9,348773.6,711758.4
321407,309743.7,710976.5,653978.9,710833.8,711301.3,348291.4,711737
321640.7,309964.5,710997.7,654155.1,710855.1,711322.2,348396.7,711758.6
322056.3,310355.3,711024.9,654740.1,710882.2,711349.5,348777.7,711785.4
321858.1,310161.6,711010.1,654500.1,710867.6,711334.9,348591.8,711770.7
321401.8,309730,710983.4,653717.7,710840.9,711308,348037,711744.1
321513.2,309838.9,710993.4,653691.6,710851.3,711318.3,347994.3,711754.3
321942.4,310247.3,711020,654268.3,710877.9,711345.3,348358.9,711780.9
321878.4,310187.5,711013.3,654229,710871.3,711338.3,348306.6,711774
321415.5,309752.6,710990.3,653458.9,710848,711314.8,347765.4,711751.2
321415,309757,710994.2,653275.4,710851.9,711318.9,347615.8,711755.2
321842.4,310166.3,711021.4,653834.5,710879.2,711345.9,347965.8,711781.9
321918.2,310237.7,711020.9,653985.9,710878.8,711345.8,348042.4,711781.6
321443.8,309787,710990.9,653239.3,710848.6,711315.8,347508.7,711751.8
321357.7,309713.8,710994.8,652925.5,710852.8,711319.6,347281.2,711755.7
321765.1,310100.9,711023,653428.5,710880.6,711347.3,347598.5,711783.6
321959.3,310279.2,711030.5,653751.4,710887.9,711354.5,347794.2,711790.7
321540.8,309878.8,711005.6,653111.9,710863.2,711329.9,347344.3,711765.9
321324.2,309674.3,710995.3,652617.1,710853.1,711319.8,346990.5,711755.6
321672.6,310003.6,711019.1,653006.9,710876.8,711344.1,347235.9,711779.8
321968.8,310280.8,711034.3,653458,710891.6,711358.4,347526.2,711794.9
321600.1,309929,711007.1,652922.1,710864.6,711331.3,347142.6,711767.4
321288.1,309637.5,710993.4,652300.8,710851.1,711318.2,346708.8,711753.9
321568.6,309907.2,711013.9,652557.9,710871,711337.9,346868.6,711774.1
321926.7,310244.5,711034.1,653088.7,710891.4,711358.5,347214.8,711794.4
321650.6,309978.1,711014.8,652722.2,710872.4,711339.3,346953.3,711775.1
321259.2,309611.7,710994.2,652003.1,710851.8,711318.8,346457.8,711754.6
321441.5,309791.7,711010,652107.5,710867.7,711334.8,346517.6,711770.6
321854.1,310179.9,711035.7,652687.1,710893.4,711360.2,346897.3,711796.3
321711.6,310043.6,711025.6,652513.3,710883.1,711349.7,346765.7,711786
321249.7,309609.8,710998,651730.7,710855.3,711322.1,346219,711758.5
321340.6,309698.5,711007.9,651673.4,710865.2,711332.1,346166.8,711768.6
321759.5,310093.6,711030.8,652236.6,710888.1,711355.1,346527.3,711791.3
321733.5,310062.9,711024.9,652249.3,710882.3,711349.2,346523.7,711785.7
321257.9,309608.7,710998.4,651469.9,710855.5,711322.4,345982.1,711759
321229.4,309589.3,711002.3,651240.1,710859.1,711326.1,345812.3,711762.4
321635.4,309973.9,711027.6,651762.1,710884.6,711351.8,346143.2,711787.7
321731.9,310058.8,711029.5,651945.3,710886.8,711353.8,346247.2,711789.6
321264.8,309616.4,711002.1,651200.6,710859.1,711325.7,345725,711762.2
321106,309468.5,710996,650780,710852.8,711319.8,345422.2,711756.4
321476.7,309823,711020.5,651216.9,710877.3,711344.7,345696.9,711781.3
321695.2,310026.8,711035.7,651563.8,710892.6,711359.6,345915.7,711796
321270.2,309618.5,711011.4,650923.8,710868.1,711335.4,345459.6,711771.9
320994.2,309359.8,710993.9,650344.1,710850.1,711317.4,345035.9,711753.7
321331.5,309683.7,711018.7,650689.1,710875.3,711342.4,345242.9,711778.6
321651.4,309984.6,711040.6,651160.9,710897.4,711364.3,345545.3,711800.6
321279.4,309628.6,711012.3,650640.4,710869.4,711336.4,345162.2,711772.6
320929.4,309298.8,710995.3,649964.9,710851.8,711319,344679.3,711755.5
321172.9,309537.7,711014.3,650161.1,710871.2,711338.3,344787.7,711774.7
321552.6,309893.8,711039.9,650708.1,710896.8,711364.3,345140.5,711800.6
321316.8,309661.9,711025.5,650388.1,710882.3,711349.6,344903.9,711785.6
320909.7,309279.9,711005.4,649641.3,710862.5,711329.4,344376.6,711765.7
321036.2,309403.8,711012.7,649657.3,710869.8,711336.5,344352.3,711772.9
321462.5,309805.8,711040.4,650232.9,710897.4,711364.7,344722.4,711800.8
321329.2,309677.1,711025.4,650073,710882,711349.5,344586,711785.6
320862.7,309238.6,711003.3,649283.7,710859.3,711326.5,344031.8,711763.1
320916.3,309297.7,711014.2,649168.8,710870.4,711337.4,343936.5,711773.8
321336.7,309703,711037.4,649709.1,710893.7,711361.2,344279.1,711797.3
321343.8,309710.4,711033.3,649748.5,710889.7,711356.8,344285.5,711793.4
320878.9,309269.3,711012.1,648977.6,710868.8,711335.6,343749.6,711771.9
320806.8,309211.3,711011.2,648669,710867.8,711334.4,343517.5,711771.1
321195.8,309580.7,711032.9,649141.6,710889.6,711356.4,343812.4,711792.9
321338.2,309713.3,711038.4,649363,710894.8,711361.6,343947.7,711798.1
320874.5,309267.1,711011.4,648638.8,710867.9,711334.8,343438.1,711771.3
320717.7,309122.2,711010.2,648199.1,710866.4,711333.2,343123.2,711769.9
321088.7,309477.5,711036.2,648614.1,710892.9,711359.6,343387.4,711796.2
321332.1,309709.2,711047.1,648982.8,710903.8,711370.6,343617.3,711807.3
320923.7,309318.4,711016,648367.1,710872.3,711339.1,343170.5,711776.1
320661.6,309068.4,711009.1,647799.8,710865.2,711332.1,342769.8,711768.8
320994.1,309386.9,711038.1,648128.1,710894.9,711361.4,342977.6,711798.1
321344.8,309715.1,711057.7,648634.6,710914.5,711380.8,343306.3,711817.8
321032.1,309411,711034.9,648190.2,710891.3,711358.3,342981.5,711795
320663.3,309061.4,711013.9,647496.1,710870.1,711336.9,342484.7,711773.9
320885.4,309274.3,711029.9,647660,710886.3,711352.7,342572.3,711789.6
321286,309653.4,711052.4,648219.3,710908.8,711375.7,342935.6,711812.5
321089.3,309462,711040.3,647961.9,710896.3,711363.3,342744.6,711800.1
320649.1,309045.9,711016.2,647192.1,710871.9,711339,342199.1,711776.1
320780,309169.4,711028.6,647198.9,710884.6,711351.6,342181.3,711788.5
321203.3,309563.9,711057.2,647775.1,710913.4,711380.3,342553.3,711817.4
321110.4,309470.4,711046.6,647683.5,710902.8,711369.6,342466.2,711806.7
320632.8,309013.5,711020.3,646892.1,710876.4,711343.3,341907.8,711780.1
320651.1,309036,711026.4,646728,710882.6,711349.6,341772.8,711786.3
321062.1,309425.4,711047.8,647254.3,710904.1,711371.5,342099.6,711808.3
321117.2,309477.4,711047.6,647363.6,710903.5,711371.1,342148.8,711807.7
320631.6,309014.4,711020.1,646597.4,710876.1,711343.3,341603.7,711780
320541.6,308929.6,711025.4,646276.1,710881.3,711348.9,341362.8,711785.9
320943.6,309308.8,711052,646757.3,710908.1,711375.1,341662.1,711812.3
321106.8,309455.3,711059,647027,710914.9,711382,341821.5,711819.3
320640.7,309011.4,711025.8,646319.4,710881.4,711348.7,341303.8,711785.9
320427.3,308810.7,711018.8,645829.2,710874.6,711341.3,340944.1,711778.6
320785.8,309154.2,711045.9,646219.3,710902,711368.9,341184.8,711806
321049.4,309402.3,711058.2,646617.3,710913.7,711380.9,341427.5,711818
320662.8,309029.9,711033.1,646040.8,710888.4,711355.8,341005.1,711792.5
320351.5,308736.3,711018.1,645409.7,710873.6,711340.8,340547.3,711778.2
320613.1,308988.4,711035.7,645647.6,710891.3,711358.5,340675.1,711795.9
320966.7,309322.1,711058.1,646150.4,710913.8,711381.1,340994.1,711818.5
320698.5,309067.5,711043.1,645760.6,710898.7,711365.9,340704.2,711803.5
320264.2,308657.7,711011.8,644993.9,710867.1,711334.4,340138,711771.7
320461.1,308848.3,711029.9,645111.1,710884.8,711352.4,340187.7,711789.6
320867.7,309235.2,711057.7,645673.1,710913.1,711380.4,340545.1,711817.6
320717.1,309087.2,711049,645479,710904.1,711371.4,340391.5,711808.9
320290,308684.6,711028.6,644725.1,710882.9,711350.4,339851.8,711788
320373.5,308769.5,711038.4,644677.9,710893,711360.2,339790.9,711797.9
320771.1,309146.5,711058.4,645222.8,710913.3,711380.7,340132.3,711817.8
320730.5,309101.8,711050.9,645202.8,710905.9,711373.3,340090.6,711810.3
320272.6,308671.3,711025,644438,710880.2,711347.6,339544.3,711784.4
320270.7,308674.8,711031.2,644244,710885.8,711353.3,339388.7,711790.3
320707.2,309083.4,711065.6,644807.4,710920.8,711388,339752.1,711825.3
320780.4,309145.8,711061,644963.8,710916.8,711383.6,339824.4,711820.7
320324.3,308709.9,711033,644242.1,710888.3,711355.6,339300.6,711792.5
320209.2,308603.3,711029.3,643891.8,710884.6,711351.8,339034.1,711789.1
320600.9,308974.3,711054.6,644366.3,710909.9,711376.9,339327.8,711814.1
320810.3,309166.8,711066.1,644713.4,710921.6,711388.6,339540.3,711825.5
320406.6,308777.8,711041.6,644103.6,710897.4,711364.7,339094.2,711801.3
320210.4,308594.5,711036.6,643636.1,710891.8,711359.4,338750.6,711796.3
320567.2,308933.4,711062.1,644035.6,710917.6,711384.6,338997.5,711821.6
320847.3,309190.3,711072.6,644488.3,710927.9,711395.1,339274.1,711832
320494.7,308849.2,711044.6,643995.2,710899.5,711366.6,338899.3,711803.9
320181.3,308553.9,711029.5,643391.7,710884.7,711352,338456.8,711788.8
320465.8,308829.2,711053.6,643670.6,710908.4,711375.9,338626.3,711812.4
320826.6,309166.5,711072.3,644218.1,710927.9,711394.8,338977.1,711832.3
320580.7,308927.4,711055.2,643904.1,710911.1,711377.9,338735.7,711815.4
320214,308586.5,711041.8,643231.6,710896.9,711364.1,338257.7,711801.5
320377.3,308745.4,711055.4,643325.6,710910.1,711377.3,338295.6,711814.9
320750.3,309098.6,711072.3,643867.8,710927.1,711394.4,338635.6,711831.8
320603.4,308952.2,711055.9,643704.6,710910.9,711378.3,338494,711815.6
320164,308535.1,711035.1,642957.7,710890,711357.4,337959.4,711794.6
320242.5,308618,711049.4,642890.8,710904.3,711371.3,337893,711808.9
320669.6,309025.9,711078.3,643456.1,710933,711400.3,338265.4,711838
320630.3,308985.5,711064.8,643453.9,710919.3,711386.3,338238.7,711824.1
320155.8,308534.3,711035.1,642682.3,710889.6,711356.3,337685.1,711794.4
320120.4,308509.1,711039.1,642440.5,710894.1,711361.2,337503.4,711798.9
320527.4,308895.9,711071,642953.5,710925.6,711392.9,337846.4,711830.6
320632.8,308989.9,711070.1,643143.9,710924.4,711391.5,337960.9,711829.5
320202,308581.2,711040.7,642449.9,710895.4,711362.4,337465.8,711800.2
320074,308466.2,711043.4,642074.1,710898.5,711365.6,337199.1,711803.3
320426.6,308804.9,711066.1,642499.1,710921.1,711388.2,337478.2,711826
320661.9,309023.8,711079.1,642866.9,710933.6,711401.4,337725.1,711839.1
320269.3,308645.3,711049.1,642277.9,710903.4,711371.4,337300.2,711808.8
320035.3,308427.5,711039.9,641765.9,710894.4,711362.3,336934.3,711799.5
320351.8,308731.5,711062.8,642106,710917.6,711385.3,337157.7,711822.8
320678.3,309037.6,711082.7,642589.4,710937.1,711404.8,337486.8,711842.6
320393.1,308760.2,711068.3,642172.6,710922.2,711389.8,337193,711828.1
320035.9,308424.4,711042.8,641510.8,710896.6,711364.3,336712.3,711802.5
320253,308636.1,711053.6,641691.1,710907.8,711375.5,336818.6,711813.1
320636,308990.4,711080.6,642250.1,710935.3,711402.9,337205.3,711840.3
320429.6,308785.1,711066.5,641989,710920.9,711388.4,337014.5,711826.3
320032.2,308409.1,711044.7,641285.1,710898.9,711366.5,336511.9,711804.2
320191.3,308562.6,711064.2,641349.4,710918.8,711385.9,336546.5,711823.8
320622.6,308970.9,711097.6,641943.3,710952.1,711419.4,336961,711857.4
320525.5,308876.7,711085.4,641852.6,710940.1,711407.7,336887.2,711845.3
320062.1,308435.8,711052.5,641091.3,710907.2,711374.2,336337.2,711812.3
320100.1,308470.1,711060.4,640978.6,710914.9,711382.4,336250.2,711820.3
320504.2,308854.8,711086.2,641524.5,710940.4,711408.3,336618.5,711845.9
320522.3,308862.3,711078.7,641602.4,710932.8,711400.6,336654.8,711838.6
320084.5,308443,711051.4,640886.1,710906,711373.6,336143.6,711811.4
319999,308366.8,711047.8,640593.7,710902.6,711369.7,335924.8,711807.8
320379.9,308730.2,711073.5,641072.6,710928.3,711395.6,336248.5,711833.7
320522.6,308859.8,711078.8,641316.2,710933.6,711400.7,336412,711838.6
320087.6,308439.4,711048.8,640645.4,710903.4,711370.5,335928.1,711808.1
319932.5,308298.7,711050.9,640236.6,710904.7,711372.6,335637,711810.4
320270.2,308624.9,711077.1,640629.9,710931.1,711398.8,335897.4,711837
320506.2,308846.4,711087.1,641001.4,710941.4,711408.9,336146.2,711847.4
320144.8,308498.5,711065.7,640462.3,710920.1,711387.3,335759.9,711825.9
319860,308230,711050.7,639888.8,710904.4,711372,335341,711810
320114,308473.2,711064.4,640138.9,710917.9,711385.7,335494.6,711823.7
320439.4,308780.4,711084.2,640626.3,710938.1,711406.2,335829.8,711843.8
320162,308512.8,711065.7,640239,710920,711387.4,335547,711825.1
319818.5,308187.5,711047.8,639591.4,710901.6,711368.9,335080.9,711807.2
320025.8,308392,711066.1,639746.1,710919.6,711387.1,335175.2,711825.7
320409.4,308756.2,711092.7,640296.3,710946.5,711413.9,335553.7,711852.3
320229.7,308580.4,711077.8,640074.3,710931.4,711398.9,335383.5,711837.2
319824.7,308195,711054.6,639364.2,710908.2,711375.7,334871.5,711814.1
319954.7,308322.9,711070.4,639382.5,710924.2,711391.6,334875.6,711830.3
320329.2,308674.8,711086.2,639907.8,710940,711407.9,335231.8,711846.1
320268.8,308613.7,711078.4,639863.3,710932.3,711399.9,335193.8,711838.4
319840.3,308206,711058.3,639150.3,710912.4,711379.5,334685.3,711818
319861.8,308228.2,711066.8,639005.8,710920.8,711387.9,334575.8,711826.1
320261.7,308607.3,711092.2,639535.5,710946.2,711413.7,334938.5,711851.5
320337.1,308675.2,711095.1,639685.6,710949.5,711416.8,335038.3,711854.8
319904.1,308261.1,711066.3,638993.8,710920.5,711387.9,334540.4,711826.3
319788.5,308151.5,711058.6,638663.1,710911.9,711379.9,334292.6,711818.3
320151.6,308497.7,711086,639118.6,710939.3,711407,334605.9,711845.4
320332.3,308666.3,711096.4,639419.8,710949.9,711417.7,334816.2,711856.1
319940.8,308289.9,711071.9,638819.3,710925.5,711393.2,334382.8,711831.6
319755.8,308117.8,711067.3,638378.8,710920.8,711388.1,334069.3,711826.9
320083.1,308432.9,711091.8,638751.1,710945.4,711412.5,334330.7,711851.6
320355.4,308688.1,711109.2,639175,710963.2,711430.4,334630.6,711868.9
320004.1,308346.4,711081.6,638670.8,710935.4,711402.7,334259.8,711841.3
319702,308057.9,711060.8,638082.4,710914.6,711381.9,333829.7,711820.5
319969.8,308317.7,711083.8,638341.8,710937.5,711404.1,334009.5,711843.3
320312,308639,711105.1,638845.9,710958.3,711425.6,334363.1,711864.1
320086.8,308417.3,711091.2,638531.8,710944.8,711412.1,334134.8,711850.8
319720.6,308068.7,711070.4,637871.1,710923.9,711391.4,333655.8,711829.9
319890.7,308232.8,711085.6,637976.1,710938.8,711406.7,333720.6,711845.1
320264.3,308582.8,711107,638506.3,710960.6,711428.3,334087.9,711866.9
320136.7,308456.6,711099.7,638355.4,710953.8,711421.1,333979.6,711859.6
319683.8,308022.3,711064.6,637602.5,710918.6,711386.1,333426.9,711824.5
319750.1,308089.6,711073.9,637542.3,710927.5,711395.2,333377.3,711833.6
320126.4,308444.1,711097.9,638057.8,710951.6,711418.9,333732.8,711857.6
320096.6,308408,711093.8,638054.4,710947.6,711415,333720.4,711853.8
319651.2,307986.3,711066.9,637327.1,710920.1,711387.6,333193.1,711826.5
319640.4,307984.2,711075.8,637132.9,710928.9,711396.4,333049.3,711835.3
320012.4,308339,711102.2,637612,710955.6,711423.6,333376.2,711862.1
320093.3,308412,711104.9,637767.6,710958.4,711426.4,333477.1,711864.5
319653.9,307989.9,711075,637073.8,710928.6,711395.9,332966.6,711834.6
319532,307881.1,711074.1,636717.3,710927.8,711395,332700.3,711833.6
319859.4,308196.7,711096.6,637111.6,710950.4,711417.4,332963.6,711856
320025.7,308351.4,711100.8,637383.4,710954.5,711421.4,333148,711860.3
319622.4,307965.6,711072.4,636769.6,710925.9,711392.9,332700.2,711831.9
319412.6,307771.4,711067.3,636280.6,710920.6,711387.6,332341.2,711826.6
319700,308047.4,711087.8,636581.8,710941.1,711407.7,332539.1,711847.1
319977.8,308310.6,711105.9,636997.6,710959.3,711426.6,332828.6,711865.6
319687.8,308032.2,711089.9,636555.4,710942.9,711410.6,332505.1,711849.6
319366,307725.6,711063.8,635926.6,710917,711384.2,332033,711823.2
319588.4,307938.6,711084.3,636118.3,710937.6,711404.8,332156.2,711844
319925.5,308253.5,711105.9,636604,710959.1,711426.4,332495.9,711865.3
319727.1,308056.7,711093.5,636322.1,710946.4,711414.1,332291,711852.3
319364,307707.9,711073.8,635651.6,710927.1,711394.4,331799.6,711833.1
319514.1,307858,711087.9,635707,710941.3,711408.1,331823.3,711847.5
319884.1,308209.8,711112.9,636222.8,710966.4,711433.3,332180.5,711872.3
319792.3,308110.6,711105.6,636104.8,710959.1,711426,332090.3,711864.9
319390,307723.3,711078.8,635393,710932.1,711399.3,331567.3,711838.1
319400.3,307736.1,711075.3,635260.3,710928,711395.2,331446.1,711834.5
319788.8,308109.7,711106.8,635780.6,710959.6,711426.8,331810.6,711865.9
319815.6,308130.7,711110.6,635843.6,710963.8,711430.7,331855.1,711870
319378.1,307710.1,711082.1,635129.4,710935.2,711402.3,331333,711841.3
319297.2,307637.6,711073.7,634842.9,710926.6,711394.1,331104.6,711833
319650,307977.5,711096.9,635286.3,710950,711417.3,331405.8,711856.9
319760.8,308078.2,711102.1,635479.4,710955.4,711422.2,331536.8,711861.6
319345.5,307679,711073.9,634816.8,710926.9,711393.9,331050.2,711833.3
319218.5,307566.8,711075.4,634440.4,710928.4,711395.8,330775.3,711834.8
319548.5,307884.2,711104.1,634825,710956.8,711423.9,331040.8,711863.3
319747.3,308074.2,711115.1,635143.6,710967.8,711434.9,331258.8,711874.1
319404.8,307746.5,711095.6,634606.8,710948.4,711415.1,330867.2,711854.6
319168,307527.4,711084.1,634086.1,710936.9,711403.8,330483.2,711843.4
319415.5,307769.7,711100.4,634332.6,710953.3,711420.5,330644,711859.6
319664.7,308001.6,711110.5,634728.1,710963.4,711430.5,330913.8,711869.7
319384.9,307732.2,711094.4,634324.9,710947.1,711414.2,330619.3,711853.6
319075.3,307442.3,711081.7,633717.7,710934.3,711401.4,330170.3,711840.9
319282.4,307648.7,711099.4,633878.7,710952.1,711419.3,330263.3,711858.5
319608.8,307959.6,711119.6,634362.3,710972.6,711439.9,330604.1,711878.5
319384.8,307738.1,711094.9,634078.8,710947.4,711414.8,330390,711853.6
319028.6,307406.3,711076.3,633417.3,710928.8,711396.1,329900.5,711834.9
319166.7,307546.7,711096.8,633458.2,710949.1,711416.6,329912.3,711855.5
319522.7,307886.1,711121.1,633961.8,710973.9,711441.1,330261.3,711880.1
319442.7,307804.8,711110.3,633884.4,710963.4,711430.6,330199.1,711869.5
319053,307441.2,711086.4,633204.2,710939.4,711406.3,329700.1,711845.5
319078.1,307475.3,711089.9,633068.8,710942.8,711409.7,329582.7,711848.6
319439.7,307819.8,711115,633555.3,710967.6,711434.7,329914.6,711873.8
319461.5,307840.8,711110.4,633642.3,710963.3,711430.5,329965,711869.2
319062.1,307462.3,711083.5,632985.3,710936,711403.6,329476.1,711842.2
319028.5,307440.3,711091.2,632746.2,710944.1,711411.4,329294.8,711850.4
319343.2,307733.1,711111.8,633158,710964.3,711431.8,329576.6,711870.8
319488.5,307864.1,711118.9,633407,710971.1,711439,329755.2,711877.6
319136.8,307530.8,711098.5,632837.4,710950.8,711418.6,329347.4,711857.1
318978.7,307382.5,711092.3,632438,710944.6,711412.4,329051.6,711851.1
319266.3,307651.7,711111.7,632781.7,710964.4,711431.8,329285.8,711870.6
319497.1,307869,711123.8,633148,710976.9,711444.3,329544.1,711882.7
319190.9,307574.7,711099.6,632674.1,710952.3,711419.9,329199,711858.5
318958,307357,711087.1,632164.1,710939.2,711406.8,328828.7,711845.7
319223.4,307611.5,711113.4,632433.8,710965.6,711433,329020.9,711872.1
319499.3,307864.6,711127.1,632858.5,710979.2,711446.5,329316.2,711885.9
319252.1,307623.8,711105.7,632501.8,710958,711425.5,329055.8,711864.8
318951.6,307341.2,711089.6,631906.6,710941.8,711409.5,328631.3,711848.8
319132.8,307515.8,711106.9,632034.1,710958.6,711426.8,328716.2,711865.6
319463,307825.3,711130.1,632514.4,710982.3,711449.6,329051,711889.1
319319.4,307679.7,711115.9,632318.9,710968.4,711435.9,328908,711875.1
318979.4,307354.4,711100.1,631678.2,710952.4,711419.8,328454.7,711858.8
319060.9,307435.5,711107.6,631642.7,710959.8,711426.9,328419.7,711866.3
319377.1,307728.4,711122.5,632096.8,710974.4,711441.8,328728.8,711881.1
319368.7,307720.6,711126.7,632104.1,710978.8,711446.3,328740.3,711885.6
319007.8,307379.8,711109.4,631464.6,710961.4,711428.9,328286,711868.3
319009.1,307378.6,711113.8,631300,710965.9,711433.1,328160.8,711872.8
319326.1,307673.9,711130.6,631732.5,710982.9,711450.3,328451.9,711889.1
319352.7,307691.1,711120.2,631826.8,710972.3,711439.7,328501.2,711878.7
318976.3,307333.7,711094.3,631201.3,710946.5,711413.5,328051.1,711852.9
318914.3,307281.8,711100.8,630932,710952.6,711419.9,327856.8,711859.4
319257.4,307602.9,711132.7,631359.6,710984.8,711451.9,328150.4,711891.4
319390.7,307723.5,711131.6,631598.4,710983.9,711450.9,328299.8,711890.3
319048.6,307399.7,711110.1,631053.3,710962.4,711429.8,327905.1,711868.9
318903.3,307268.5,711109.1,630658.1,710961.4,711428.6,327621.4,711867.8
319178.4,307525.7,711128.8,630976.4,710980.8,711448.3,327823.1,711887.4
319387.3,307713.4,711138.2,631336.9,710990.3,711457.8,328059.4,711897
319092.7,307428.3,711115.1,630893.6,710966.8,711434,327730.5,711873.5
318858.4,307216.5,711109.3,630388.8,710961.4,711428.6,327367,711868.1
319075.3,307423.6,711126.9,630600.3,710978.9,711446.4,327489.3,711886.2
319337,307666.5,711134.8,631023.8,710986.9,711454.4,327756.3,711894.3
319148.8,307485.2,711123.4,630754.4,710975.5,711443.4,327553.6,711882.5
318818.8,307170.9,711106.8,630151.7,710958.9,711426.2,327118.3,711865.6
318961.6,307312,711119.6,630238.7,710971.8,711438.9,327157.2,711878.6
319328.5,307655,711147.9,630770.2,711000.4,711467.4,327513,711906.9
319204.5,307533.3,711134.2,630639.4,710986.1,711453.2,327396.9,711892.6
318853.6,307205.4,711113.9,630015.9,710965.4,711433.1,326947.6,711872.5
318912.1,307264.3,711119.4,629968.4,710970.9,711438.4,326891.4,711877.9
319245.3,307567.9,711142.1,630462.3,710993.6,711461.1,327212.4,711900.6
319250.8,307565.3,711140.3,630516.8,710992.1,711459.3,327233.2,711899
318860.3,307202.8,711109.9,629866,710961.9,711429.3,326761.6,711868.5
318850.1,307188.9,711117.9,629696.8,710970.1,711437.6,326633.3,711876.6
319186.8,307500,711141.3,630150.1,710993.4,711460.6,326922.6,711900.1
319302.7,307602.4,711147.7,630354,711000.1,711466.9,327047.3,711906.3
318925.9,307241.7,711120.2,629757.1,710972.6,711439.3,326614.8,711879.1
318800.2,307125.6,711119.7,629428.8,710972.4,711439.1,326377.9,711878.5
319095.7,307400.8,711141.4,629803.5,710993.8,711460.9,326622.4,711900.7
319264.1,307552.5,711147.6,630093.4,710999.8,711466.9,326807.7,711906.6
318936.3,307244.1,711126.7,629585.4,710978.2,711445.1,326443.5,711884.9
318727.7,307054.3,711117.4,629120.1,710969.1,711435.9,326107.4,711875.6
318974.3,307283,711133.1,629386.6,710985.6,711452.5,326272.5,711892.1
319238.3,307525.4,711151.6,629796.1,711003.5,711470.6,326550.9,711910.3
318985.3,307282.8,711134.1,629414.7,710985.9,711453.3,326279.6,711892.6
318719.6,307045.5,711120.7,628866.7,710972.2,711439.8,325890.6,711879.1
318910.4,307227.1,711137.1,629035.9,710988.6,711455.5,326001.5,711895.4
319212.7,307501.8,711152.6,629493.9,711004.2,711471.3,326307.5,711910.9
319056.1,307352.2,711141.9,629278.2,710993.1,711460.4,326150.9,711900.3
318701.6,307023.4,711116.6,628645.1,710967.6,711434.7,325700.6,711875
318829.2,307148.2,711126.8,628692.6,710978,711445.1,325719.9,711885.1
319187.7,307474.8,711153.8,629209.7,711005.3,711472.6,326075.8,711912.5
319128.8,307410.9,711150.2,629151.3,711001.4,711468.7,326030.5,711908.8
318734.6,307044.7,711120.5,628485.6,710971.3,711438.6,325555.2,711878.6
318783.5,307093.9,711133.6,628409.1,710985,711451.9,325505.2,711891.9
319126.4,307409.6,711154.1,628878.9,711005.4,711472.7,325818.2,711912.6
319147.3,307425.8,711147.8,628945.1,710999.3,711466.5,325851.3,711906.1
318778.4,307077,711128,628332.8,710979.9,711446.5,325423,711886.4
318737.6,307037.5,711132.3,628115.4,710984.1,711450.8,325265.4,711890.3
319032.5,307315.5,711148.9,628519,711000.2,711467.1,325530.6,711906.8
319159.2,307431,711154.1,628739.4,711005.7,711472.6,325678.6,711912.4
318815.8,307098.5,711132.6,628171.1,710984,711451.5,325276.4,711890.9
318655.5,306959.7,711125.3,627784.9,710976.2,711443.9,324999.8,711883.5
318948,307231.1,711147.1,628139.6,710997.8,711465,325238.6,711904.9
319162.6,307423.4,711160.4,628488,711011.5,711478.7,325480.2,711918.4
318857.5,307130.7,711140.8,628012.5,710992.1,711459.4,325143.2,711899.1
318639,306936.8,711133.8,627538.7,710984.9,711451.9,324812.8,711892
318879.3,307160.7,711149.6,627796.2,711000.6,711467.8,324980.6,711907.8
319159.4,307422.3,711165.7,628231.4,711017.1,711484.1,325280.6,711923.8
318904.7,307177.8,711144.3,627872.9,710995.5,711461.9,325024.7,711902.3
318628.3,306920.2,711130.1,627309.3,710981.4,711448.1,324626.1,711888.3
318800.7,307084.7,711144.3,627454.3,710995.7,711462.8,324716.6,711902.5
319126.1,307386.1,711168.4,627946.4,711019.4,711486.4,325058.3,711926
318966.8,307228.5,711150.4,627738.1,711001.5,711468.6,324901.9,711908.8
318624.8,306913,711130.2,627107.9,710981.4,711448.6,324460.5,711888.5
318726.9,307018.5,711141.9,627117.5,710993.4,711460.2,324463.6,711900.3
319047.2,307306.2,711161.8,627595.4,711012.9,711480.1,324786.6,711920.1
318994.6,307251.9,711156.4,627560.7,711007.9,711475.1,324755.9,711915
318618.4,306896.7,711134.6,626915.4,710985.8,711452.8,324301.1,711893.1
318637.2,306914.5,711138.6,626784,710989.6,711456.6,324196.7,711896.8
318982.8,307233.6,711162.7,627259.6,711013.8,711481.2,324518.4,711920.9
319031.3,307277.1,711161.8,627373.6,711012.9,711480.1,324591.4,711920.1
318663.4,306937.5,711143.9,626764.7,710994.8,711462.1,324170.1,711902.1
318584.6,306870,711142.9,626495.8,710993.9,711461.3,323978.6,711901.1
318885.9,307146.9,711154.9,626887.4,711005.7,711473.1,324229.9,711912.8
319041.9,307284.1,711164.3,627161,711015.4,711483,324418.3,711922.5
318698.7,306958.6,711142.9,626613.7,710994.2,711461.7,324031.2,711901.6
318546.6,306827,711137.1,626223.8,710988.4,711455.5,323754.2,711895.6
318840.5,307103.2,711160.8,626578.9,711012.3,711479.4,323992.1,711919.4
319026.9,307269.9,711166,626920,711017.2,711484.8,324216.5,711924.4
318724.3,306980.9,711143.4,626463.3,710994.4,711462.1,323890.9,711901.8
318495.1,306770.7,711135.8,625968.6,710986.8,711453.9,323545.2,711894.3
318745.3,307005.4,711159.6,626223.6,711010.6,711477.6,323716.7,711917.7
319002.9,307239,711173.2,626651.8,711024.7,711491.6,324004.7,711931.8
318756,307004.3,711149.9,626308.9,711001.3,711468.1,323754.2,711908.6
318454.5,306728.8,711136.7,625719.6,710987.6,711454.6,323338.5,711895.1
318611.3,306877.2,711151.1,625812.9,711001.8,711468.9,323394.4,711909.4
318940.5,307179.7,711177.4,626304.1,711027.9,711495.1,323733.1,711935.4
318775.1,307015.6,711161.4,626115.4,711012,711479.2,323589.3,711919.3
318407.8,306680.7,711138.9,625456.9,710989.8,711456.8,323126.8,711896.7
318478.9,306749.6,711148.3,625414,710999.2,711466.2,323085.8,711906.1
318796.8,307039.3,711165.1,625875.9,711015.6,711482.7,323384.5,711922.8
318761.5,307003.7,711160.2,625870.1,711010.9,711478.1,323367.3,711917.9
318367.4,306638.9,711137.7,625203.4,710988.3,711455.4,322893.7,711895.4
318338.1,306618.4,711142.5,625009.9,710993.4,711460.3,322747.7,711900.3
318662.8,306926.8,711161.9,625437.8,711012.8,711479.7,323022.8,711920.2
318745.4,307000.9,711169.4,625595.5,711020.4,711487.2,323125.3,711927.8
318359.3,306635.8,711152.4,624969,711002.9,711469.8,322681.3,711910.5
318230.9,306523.5,711146.4,624619.5,710996.8,711463.5,322420.2,711904.3
318524.5,306802.6,711168,624988.8,711018.3,711485.8,322655.7,711926.1
318666.3,306930.9,711172.6,625241.6,711022.8,711490.3,322808.9,711930.6
318300,306587.6,711148.8,624670.4,710999.1,711466.3,322392,711906.5
318105.7,306412.8,711142.3,624210.3,710992.8,711459.6,322058.8,711900.3
318378.9,306673,711163.9,624502.7,711014.3,711481,322242.5,711921.8
318611.4,306881.8,711176.1,624870.1,711026.8,711493.9,322477,711934.3
318289.1,306578.9,711147.9,624398.7,710998.2,711465.7,322122.1,711905.9
318035.6,306353.6,711140.8,623852.9,710990.6,711457.6,321727.5,711898.3
318265.1,306576,711163.9,624050.3,711013.9,711481.1,321843.1,711921.8
318521.4,306811.3,711170.9,624456.2,711021.3,711488.5,322093.4,711928.9
318323.5,306618.2,711156.8,624171.9,711007.3,711474.7,321878.9,711914.9
317979.3,306300.8,711137.4,623529.7,710987.5,711454.8,321413.5,711895.1
318127.4,306449.7,711156.6,623597,711006.6,711473.9,321447.5,711914.2
318462.4,306758.8,711175.6,624078.3,711026,711493.1,321754.6,711933.7
318358,306652,711164.8,623955.6,711015.1,711482,321642.9,711922.6
317983.3,306305.1,711145.8,623296.6,710995.9,711462.7,321163.5,711903.4
318041.6,306368,711155,623220.8,711005,711472.3,321086.7,711913
318379.8,306681.4,711172.8,623689.6,711022.7,711490.1,321382.3,711930.4
318363,306659.1,711166.1,623714.1,711016.4,711483.1,321372.5,711923.8
317951.1,306272.2,711138.8,623034.6,710989,711455.7,320869.7,711896.4
317936.7,306264.5,711147.5,622832.3,710997.1,711464.4,320711.3,711905.3
318255.2,306560.1,711169.9,623251.9,711019.6,711486.8,320975.3,711927.8
318336.8,306630.2,711171,623421.3,711020.6,711487.6,321067.4,711928.8
317955.3,306271.7,711147.3,622809.9,710997.3,711463.8,320614.6,711904.9
317825.8,306156.9,711144.8,622450.3,710994.8,711461.7,320341.1,711902.6
318116.4,306433.6,711165.3,622800.4,711014.9,711482.2,320552.9,711923.1
318308.3,306614.5,711177,623118.5,711026.6,711493.5,320750.1,711934.5
317946.8,306275.2,711151.3,622577.9,711000.9,711467.7,320343.8,711908.6
317741.2,306091.7,711146.6,622107.9,710996,711462.5,319998.8,711903.8
317999.9,306336.6,711166.3,622377.9,711015.6,711482.6,320162.8,711923.8
318245,306561.9,711177,622767.6,711026.3,711493.3,320408.9,711934.2
317966.2,306293.8,711155,622365.7,711004.1,711471.3,320100.5,711912.1
317679.1,306034.4,711139.9,621792.4,710989.3,711456.3,319677,711897.4
317888.4,306239.2,711160.8,621962,711010.4,711477.3,319776.3,711918.2
318202.5,306530.5,711181.9,622436.1,711031.4,711498.8,320092.4,711939.5
318022.2,306359.8,711168,622200,711017.6,711485,319908.4,711925.6
317661.8,306025.6,711144.9,621546.7,710994.8,711461.5,319424.3,711902.4
317779.9,306140.6,711158.6,621570.3,711008.7,711475.4,319420.8,711916
318101.9,306441.2,711175.9,622035.4,711025.8,711492.4,319721.8,711933.1
318019.8,306360.1,711165.6,621950.4,711015.3,711482.4,319638.3,711922.9
317649.1,306016.2,711148.1,621298.9,710997.9,711464.8,319162.7,711905.7
317683.5,306054.4,711159.1,621187.6,711008.5,711475.8,319067,711916.6
318011.3,306356.8,711177.8,621637.2,711027.2,711494.4,319362,711935.3
318018.3,306355.1,711172.6,621694.4,711021.9,711488.9,319381,711929.8
317626,305989.3,711147.9,621038.4,710997.3,711464.3,318894.9,711905.1
317550.7,305926.4,711144.6,620760.6,710993.8,711461.3,318674.6,711902.1
317895.7,306253.2,711175.3,621198.6,711024.9,711492.2,318968.3,711932.9
318000.3,306346,711174.3,621397.4,711023.7,711490.8,319088.6,711931.5
317640.6,306012.9,711152.4,620816,711001.4,711468.7,318663.3,711909.4
317496.5,305887.5,711153.1,620440,711002.1,711469.2,318384.6,711910.1
317797.5,306171.4,711176.8,620794.8,711025.8,711493.2,318620,711934.5
318002.6,306359.9,711185.9,621132.6,711034.8,711502.6,318843.3,711943.3
317668.6,306039.8,711158.3,620631.4,711007.3,711475.2,318466.2,711915.3
317466.7,305857.1,711157.4,620152.6,711006.5,711474.2,318118,711914.6
317701.4,306087.7,711177.6,620386.9,711026.4,711493.9,318262.6,711934.6
317948,306316.3,711188.6,620780.1,711037.8,711505.1,318521,711945.8
317684.8,306058.9,711163.4,620404.4,711012.5,711479.8,318230.6,711920.5
317380.9,305780.2,711145.2,619813.8,710994.1,711461.3,317793.6,711902
317565.6,305962.1,711165.9,619950.9,711014.7,711482,317877.4,711923.1
317884.1,306257.6,711182.1,620420,711031,711498.6,318193,711939.7
317742.5,306120.3,711167.6,620234.5,711016.6,711483.9,318047.8,711924.8
317401.2,305803.4,711150.8,619605.4,710999.6,711467.3,317587.1,711907.9
317502.3,305906.1,711164.1,619600.1,711013.1,711480.6,317566.3,711921.1
317833.7,306218.5,711182.4,620066.3,711031,711498.5,317874.5,711939.1
317797.9,306179.8,711177.9,620044.1,711026.6,711494.3,317843.5,711934.8
317409.2,305814.3,711153.1,619384.1,711001.9,711469.3,317354,711909.7
317410.6,305823.2,711154.1,619223,711002.9,711470.2,317217.8,711910.9
317774.2,306169.3,711180.9,619699.4,711030.1,711497.3,317540.2,711937.7
317844.2,306229.7,711184.5,619843.4,711033.4,711500.5,317634.7,711941.1
317469.3,305874.9,711162.2,619236,711011.1,711477.9,317191.8,711919
317374.9,305789.4,711159.3,618940.8,711007.9,711474.8,316968.1,711915.9
317690.4,306089.9,711179.8,619337.9,711028.3,711495.6,317238,711936.3
317855,306246.1,711187.9,619611.6,711036.9,711503.9,317429.8,711944.4
317514.2,305928,711168,619078.5,711016.7,711483.9,317046.5,711924.8
317357.3,305789,711165.9,618676,711014.8,711482.1,316760.9,711923.2
317605,306027,711180.5,618951.9,711029.3,711496.4,316947.4,711937.6
317808.1,306223.9,711187.7,619284.1,711036.4,711503.2,317182.3,711944.1
317504.2,305940.8,711168.6,618836.6,711017.6,711484.6,316873.7,711925.4
317250.8,305716.3,711155.8,618307.6,711004.8,711471.4,316512.3,711912.6
317487.8,305950.5,711175.5,618528.6,711024.7,711491,316681.6,711932.7
317829.2,306273.2,711206.7,619028.8,711055.8,711522.3,317063.4,711964
317617.8,306071,711185.9,618743.5,711035.1,711501.8,316869.5,711942.8
317282.8,305755.2,711161.6,618139.7,711010.6,711477.4,316443.6,711918.3
317439.7,305907.7,711176.9,618236.4,711025.6,711492.6,316519,711933.9
317750.3,306201.3,711193.5,618694.6,711042.4,711509.4,316850.8,711950.2
317618.8,306074.3,711181.9,618541.6,711030.6,711497.6,316746.1,711938.6
317229.8,305710.3,711159.1,617872.9,711007.5,711474.8,316265.5,711916.1
317259,305744.7,711166.5,617775.6,711014.7,711481.8,316188.6,711923.3
317551.7,306021.9,711185.1,618187.9,711033.7,711500.7,316470.7,711942.3
317508.1,305978.2,711181.9,618160.1,711030.3,711497.6,316440.1,711939.1
317082.9,305577.8,711157.3,617463.7,711005.7,711472.5,315919.9,711914.3
317051.7,305557.8,711161.9,617253.8,711010.3,711477.4,315750.4,711919
317387.1,305878.5,711184.4,617688.9,711032.6,711499.9,316039.7,711941.4
317498.4,305982.5,711189.9,617881.2,711038.5,711505.8,316164.6,711947
317133.8,305635.3,711165.4,617296.9,711013.8,711480.9,315728.8,711922.1
317039.7,305557.1,711165.9,616993.6,711013.8,711481.2,315500.3,711922.4
317382.5,305885.8,711193.8,617412.3,711041.8,711508.8,315788.9,711950.8
317575.1,306057.3,711199.8,617733.9,711048.2,711515.3,316005.1,711956.8
317254.4,305745,711178.1,617248.9,711027.1,711493.7,315641.3,711935
317072.1,305578.3,711168.4,616829.4,711017.1,711484.3,315322.1,711925.6
317334.1,305823.7,711184.7,617134.4,711033.6,711500.4,315516.3,711941.8
317592.6,306059.2,711198.5,617558.7,711047.3,711513.6,315807,711955.3
317336,305805.8,711182.2,617200.8,711030.7,711497.3,315537.7,711938.8
317056.9,305541.3,711168.3,616661.9,711016.6,711483.6,315137.4,711924.8
317257.5,305731,711186.5,616839.3,711034.6,711501.9,315249.7,711943.1
317572.1,306018.8,711207.1,617302.8,711055.4,711522.8,315577.1,711963.9
317404.3,305850.9,711198.4,617076.8,711046.7,711513.8,315415.2,711955.1
317068.8,305535.5,711181.3,616465.6,711029.6,711496.4,314973.6,711937.7
317196.8,305661.2,711192.3,616503.9,711040.3,711507.6,314992.1,711948.6
317535.3,305979.2,711212.1,616976.8,711060.2,711527.4,315323.6,711968.9
317420.2,305858.3,711194.4,616846.4,711042.4,711509.6,315218.7,711951.2
317040.6,305497,711170.3,616179,711018.1,711485.4,314735.2,711926.7
317044.1,305503.8,711168.1,616035.8,711016.1,711483.4,314621.9,711924.8
317392.2,305834.3,711191.8,616488.8,711039.8,711507,314943.9,711948.3
317412,305843.5,711192.9,616540.6,711040.7,711508,314979.8,711949.5
317035.7,305482.9,711173.8,615899.8,711021.8,711488.9,314522.3,711930.4
316970.2,305426.4,711171.4,615640.4,711019.2,711486.3,314330.3,711928.1
317285.6,305724.3,711190.3,616039.3,711038.3,711505.3,314607.6,711947
317410.3,305836.3,711199.1,616249.9,711047.3,711514,314761.8,711955.5
317036.4,305480.6,711178.6,615661.9,711026.4,711493.5,314334,711934.9
316876.1,305335.5,711174.9,615270.1,711022.6,711489.7,314040.3,711930.9
317132.8,305574.8,711191.6,615572.8,711039,711506.4,314232.6,711948.1
317288.8,305715.8,711195.1,615847.9,711042.6,711509.8,314406.6,711951.4
316970,305411.2,711180.1,615360.2,711028.3,711495.3,314051.6,711936.4
316742.7,305202.5,711174.4,614859.8,711022.6,711489.7,313686,711930.9
316932.5,305381.3,711180.8,615038.9,711028.6,711495.9,313779.9,711937.4
317197.5,305628.7,711195.3,615434.6,711042.8,711510.1,314043.3,711951.6
316940.3,305381.7,711176.6,615058.4,711024.3,711491.8,313752.9,711933.3
316623.6,305086,711159.8,614455.4,711007.4,711474.7,313294.7,711916.3
316811.5,305269.2,711180.9,614591.6,711028.4,711495.6,313368.6,711937.3
317125.6,305565.4,711200.4,615055.8,711047.8,711515.4,313677.1,711956.8
316967.9,305411.8,711187.9,614852.5,711035.5,711502.8,313508.5,711944.1
316603.2,305071.2,711166.6,614213.7,711014.2,711481.6,313028,711922.9
316698.1,305167.1,711176.7,614216.1,711024.1,711491.4,313002.8,711932.9
317063.3,305509.8,711202.6,614725.2,711050.7,711517.8,313345.9,711958.9
317019.8,305461.6,711196.6,614700.2,711044.3,711511.6,313310.8,711953.1
316623.5,305088.6,711171.1,614052.4,711018.5,711486,312824.6,711927.4
316645.4,305116.8,711179.1,613934.3,711026.3,711493.7,312720.4,711935.6
316976.2,305426.6,711197.1,614389.4,711044.9,711511.9,313017.1,711954.3
317037.1,305479.6,711199.4,614533.3,711047.2,711513.9,313107.6,711956.4
316668.4,305132.5,711179.6,613936,711027.2,711494.1,312668.2,711936.3
316585.1,305058.6,711173.8,613659.4,711020.8,711488.2,312449.9,711930.3
316928.4,305385.4,711196.1,614095.1,711043.4,711510.6,312746.3,711952.6
317093.3,305536.6,711206.3,614381.1,711054,711520.7,312944.8,711962.6
316728.3,305190.1,711185.3,613845.4,711033.3,711499.9,312552.6,711941.8
316566.7,305042.7,711177.9,613464.8,711025.5,711492.1,312267.6,711934.3
316889.5,305351,711205.2,613845.9,711052.8,711519.2,312530.5,711961.7
317119.7,305564.9,711212.5,614232.1,711060.2,711526.8,312794.3,711969.2
316835.5,305291.4,711191.3,613828.4,711038.6,711505.1,312501.7,711947.4
316603.9,305076.4,711178.4,613356.3,711025.6,711492.6,312161.3,711934.3
316821.6,305285.9,711187.2,613589.5,711034.4,711501.4,312314.4,711943.4
317131.2,305575.7,711205.8,614077.9,711053.1,711519.8,312663.8,711962.1
316917.7,305366.3,711187.7,613802.6,711034.7,711501.1,312463.2,711943.6
316635,305106.6,711176.7,613263.9,711024.1,711490.7,312084.9,711932.8
316827.2,305297.8,711200.3,613419.4,711047.8,711514.6,312202.6,711956.6
317184.5,305632.8,711228.9,613951.5,711076.4,711543.6,312587,711985.4
317058.3,305506,711218.7,613820.9,711066.1,711533.2,312488.9,711975.1
316675,305141.1,711191.1,613179.4,711038.7,711504.9,312016,711947.6
316756.3,305224.5,711200,613164.3,711047.9,711514.1,311991.3,711956.6
317068.8,305519.5,711210.2,613622.2,711058.3,711524.6,312289.1,711966.2
317043.8,305488.1,711205.4,613639.6,711053.1,711519.6,312285.2,711961.8
316682.8,305143.9,711192.1,613037.9,711039.5,711506.5,311845.2,711948.9
316651.7,305115.5,711191.3,612857.9,711039,711505.8,311687,711948.1
316975.9,305414.1,711209.1,613300.6,711056.8,711523.4,311968.5,711965.8
317064.1,305482.8,711213.6,613474.8,711061.3,711528.1,312068.9,711970.1
316681.8,305112.3,711189.2,612873.1,711036.5,711503.8,311608.7,711945.8
316558.9,304994.3,711184.3,612548.8,711031.2,711498.4,311343,711940.4
316880,305291.6,711206.4,612945.6,711053.4,711520.1,311591.8,711962.8
317044.7,305436.3,711209.9,613234.4,711057.4,711523.8,311765.5,711966.5
316719.7,305120.1,711191.8,612744.3,711039.3,711505.7,311391.4,711948.3
316526.5,304933.3,711177.2,612318.6,711024.7,711491.3,311054.7,711933.3
316851.8,305243.5,711210.1,612689.4,711057.2,711524.3,311300.9,711966.3
317089.4,305460.5,711220.1,613087.6,711067.3,711534.1,311557,711976.1
316774.4,305150.6,711190.9,612663.7,711038.1,711504.6,311221.2,711947.1
316496.6,304889.6,711175.7,612127.3,711023,711489.4,310815.3,711932.1
316731.2,305114.7,711203.8,612348.8,711050.9,711517.6,310961.9,711959.9
317007.5,305369.5,711219.3,612788.2,711066.6,711533.7,311255,711975.8
316785.5,305151.3,711201.9,612507.4,711049,711516.1,311032.4,711958.4
316468,304855.2,711189.9,611911.9,711036.4,711503.6,310593.9,711945.6
316581.2,304967,711198.2,611949.1,711044.8,711511.9,310596.7,711953.9
316882.6,305252.6,711216.1,612399.2,711063,711530,310900,711971.6
316784.9,305154.8,711213.9,612292.8,711060.8,711527.9,310820.3,711969.5
316398.7,304789.6,711190.9,611625.6,711037.8,711504.9,310330.4,711946.8
316420.7,304816.7,711192.9,611513.2,711039.7,711506.4,310225.4,711948.8
316750.5,305129.2,711212.1,611972,711059,711526.1,310535.1,711968.4
316742.8,305116,711206.4,612006.4,711053.4,711520.1,310544.4,711962.8
316352.1,304748.5,711182.9,611363.9,711029.9,711496.4,310070.7,711938.9
316319.7,304726.7,711185.6,611158.5,711032.2,711499,309909.3,711941.6
316670.4,305059.2,711211.8,611621.8,711058.3,711525.6,310226.5,711967.8
316792.9,305170.3,711219.5,611853.4,711065.8,711533.2,310388.3,711975.4
316432.3,304826.4,711195.5,611297.4,711042,711509.5,309983.5,711951.2
316351.7,304756.9,711200.4,611019.3,711046.8,711514,309784,711956.1
316672.3,305059.8,711218.1,611426.8,711064.8,711531.9,310063.5,711974.1
316881.9,305253.6,711224.8,611789.9,711071.6,711538.7,310325.7,711980.9
316584.6,304966.7,711204.6,611354.8,711050.6,711518.1,310020.8,711960.4
316421,304814.8,711199.8,610969.6,711045.9,711513.2,309757.4,711955.8
316744.4,305124.5,711227.6,611344.9,711074.2,711541.4,310041.4,711983.8
317050.8,305409.3,711243.8,611848.4,711090.6,711557.8,310415.2,712000.1
316813.6,305173.6,711217.8,611548.9,711064.6,711531.9,310208.3,711974.4
316595.7,304963.9,711210.8,611111,711057.6,711524.4,309918.9,711967
316834.1,305188.8,711224.4,611370.5,711070.7,711538.1,310115.8,711980.3
317220.4,305548.7,711245.4,611967.2,711091.6,711558.9,310563.5,712001
317127.9,305447.2,711239.5,611885,711085.6,711552.8,310532.9,711995.1
316840.6,305167.8,711225.5,611385.9,711071.5,711538.6,310207.7,711981.1
317013.8,305327.9,711240.3,611536.5,711086.4,711553.3,310342.6,711996.2
317406.8,305690.6,711262.1,612142.6,711108.9,711575.6,310802.6,712018.3
317373.6,305643.2,711251.1,612185.9,711097.8,711564.7,310861.1,712007.3
317032.8,305312.2,711231.4,611651.6,711077.7,711544.9,310510.3,711987.5
317105.9,305381.7,711245,611657.5,711090.9,711558.2,310550.8,712000.4
317493.8,305740.5,711271.9,612233.4,711118.3,711585.5,310996,712027.9
317565.8,305795.7,711272.4,612426.6,711118.9,711586.1,311170,712028.7
317179.1,305421.9,711240.3,611848.1,711086.4,711553.7,310777.4,711996.3
317103.2,305348.7,711231.8,611635.4,711077.5,711545.1,310646.9,711987.9
317431.3,305652.9,711250.1,612107.3,711096.1,711563.6,311011.9,712006
317593.7,305793.6,711258,612426.3,711104.8,711571.7,311277.8,712013.9
317255.6,305464.4,711240.3,611946,711086.6,711553.6,310971.9,711996
317114.8,305329.4,711233.8,611622.4,711080.2,711547.5,310769.4,711989.6
317429,305621.9,711253.8,612023.3,711100.3,711567.8,311085.1,712010.1
317683.5,305852,711268.4,612452.1,711115.3,711582.7,311431.8,712024.8
317379.8,305554.3,711247.2,612046.5,711094.6,711561.5,311177.1,712003.6
317117.9,305305.4,711227,611562.8,711073.7,711540.8,310857.3,711983.3
317375.2,305545.3,711247.6,611860.4,711094.1,711561.5,311101.1,712003.5
317679.4,305826.5,711267.1,612359.9,711113.8,711581.1,311494.7,712023.1
317454.5,305603.1,711248.3,612084.6,711095.2,711562,311333.3,712004.7
317167.6,305331.9,711235.8,611564.5,711082.4,711549.9,310998.3,711992.1
317370.5,305527.4,711255.3,611759.5,711101.8,711569.2,311172.3,712011.4
317697.6,305832,711271.5,612287,711118.2,711585.3,311578.8,712027.6
317573.3,305710.6,711261.9,612177.1,711109.1,711576.1,311539.2,712018.2
317208.3,305363.8,711237,611574,711083.9,711550.6,311139.2,711992.8
317295.5,305447.9,711245,611595,711091.2,711558.3,311184.4,712000.8
317646.2,305776.3,711269.6,612132.4,711116.1,711583,311601.5,712025.4
317599.4,305723.3,711261.5,612147.6,711108.4,711575.4,311642.4,712017.4
317207.1,305350.8,711235.4,611527.1,711082.2,711549.3,311228.5,711991.3
317210.3,305359.1,711242.8,611407.8,711089.4,711556.4,311170.9,711998.7
317564,305689.1,711267.9,611908.7,711114.9,711581.9,311556.4,712024.1
317617.8,305731.1,711263.2,612065.9,711110.1,711577.6,311695,712019.9
317215.3,305349.4,711237.1,611461.3,711083.8,711551.1,311290.5,711992.9
317111.5,305259.4,711236.1,611177.2,711083.1,711550,311114.5,711991.9
317424.2,305555.7,711259.3,611591.1,711105.9,711573.1,311430.8,712015.4
317579.1,305696.4,711266,611877.9,711112.6,711579.6,311663.1,712021.8
317211.6,305345.2,711241.2,611344.9,711087.6,711554.9,311307.2,711996.9
317035,305185,711237.8,610955.6,711084.1,711551.4,311054.4,711993.2
317312.3,305445.4,711259.8,611296,711106.5,711573.4,311315,712015.2
317555.7,305665.3,711270.4,611693.5,711117.2,711584.7,311619.5,712026.4
317264.7,305386.7,711249.9,611288.6,711096.8,711563.9,311356,712006
316998.2,305141.1,711236.1,610777.8,711082.9,711549.9,311012.7,711992.1
317219.6,305353.5,711255.4,611008.1,711101.8,711568.7,311192.4,712011.2
317482.2,305597.4,711262.6,611437.4,711109.2,711576.3,311508.5,712018.4
317271.9,305393.3,711248.3,611167.4,711094.9,711561.9,311340.3,712004.2
316937.6,305083,711231.1,610569.9,711077.9,711544.6,310935.7,711987.3
317075.3,305217.7,711245,610650.9,711091.6,711558.5,311005.1,712001.4
317397.9,305519.4,711263.5,611129,711110.4,711577,311360.5,712019.4
317258.5,305385.4,711252.1,610981.8,711098.7,711565.7,311274.3,712007.6
316867.9,305022.5,711232.2,610319.9,711078.3,711545.6,310822.8,711987.5
316917,305075,711242.4,610244.5,711088.9,711556,310781.7,711998.1
317249.2,305388.8,711266.8,610699.9,711112.9,711580.3,311112.3,712022.4
317221.3,305356.4,711260.7,610700.5,711107.2,711574.6,311120.5,712016.6
316781.5,304938.4,711229.5,610002.5,711075.6,711543.1,310624.3,711985
316742.5,304910.2,711230.7,609787.6,711076.9,711543.9,310479.4,711986.1
317092.1,305241.8,711257.9,610242.3,711104.3,711571.3,310814.7,712013.6
317184.3,305325.8,711259.6,610420.4,711105.9,711573,310949.7,712015.1
316804,304969.3,711235.5,609827.1,711081.4,711548.5,310537.6,711991
316698.5,304880,711234.9,609513.7,711081,711547.5,310326.5,711990.6
317008.9,305173.8,711255.9,609897.6,711102.6,711569.4,310602.5,712011.8
317200,305345.3,711267.6,610218.4,711113.8,711580.6,310841.4,712023.1
316863.9,305026.1,711244.6,609722.6,711090.6,711557.6,310503,712000
316653.9,304832.1,711232.4,609274.9,711078.4,711546,310195.4,711988.1
316930.8,305098.9,711253.8,609573.1,711099.9,711567,310416.4,712009.4
317202.8,305348,711270.8,609996.5,711117,711583.9,310735.6,712026.1
316905.4,305057.9,711243.9,609595.3,711090.3,711557.2,310454.8,711999.5
316632.9,304809.4,711232.3,609066.6,711078.3,711545.4,310090.9,711987.9
316833.6,305000.9,711246.5,609250.1,711092.3,711559.9,310224,712002.2
317139.5,305283.9,711264.2,609722.7,711109.9,711577.1,310566.2,712019.3
316961.3,305113.2,711251.9,609503.1,711097.6,711564.9,310425.8,712007.3
316624.7,304799.7,711234.1,608902.1,711079.7,711546.8,310012.4,711989.6
316759.6,304929.4,711247.4,608965.2,711093.4,711560.3,310066,712003.1
317098.8,305244.3,711266.9,609463.2,711113,711580.2,310424.1,712022.3
317013.8,305156.8,711258.8,609396.2,711104.8,711571.8,310383.2,712014.1
316643.4,304809.9,711241.3,608776.3,711087.5,711554.5,309953.8,711996.6
316648.1,304821,711238.8,608663.9,711085.2,711552.3,309871.8,711994.4
316994.8,305143.2,711260.8,609153.8,711107.2,711574.2,310223.8,712016.6
317012.5,305151.4,711256.1,609234.8,711102.4,711569.4,310286.8,712011.8
316621.2,304785.8,711232.8,608613.8,711078.9,711545.8,309854.3,711988.3
316568.2,304746.3,711236.2,608396.3,711082.3,711549.3,309707,711991.5
316902.4,305067,711260.5,608838.4,711106.4,711573.6,310021.5,712015.7
317039.3,305197.1,711267.9,609080.9,711113.8,711581.1,310206.1,712023
316664.7,304844.3,711243.3,608510.4,711089.1,711556.6,309809.8,711998.4
316513.9,304709.1,711238.8,608147.8,711084.5,711552.1,309557,711993.9
316805.4,304982.5,711259.8,608508.1,711105.9,711573.3,309811.4,712015.4
317023.5,305181.4,711274.4,608863.9,711120.2,711587.1,310070.2,712029.4
316692.6,304867.6,711251.6,608387.1,711097.1,711564.3,309733.8,712006.4
316461.7,304661.6,711242.1,607909.8,711087.4,711554.9,309401.9,711996.9
316697.8,304884.9,711259.2,608158.2,711104.6,711571.8,309572.9,712014.1
316961.9,305125.8,711273.8,608574.6,711120,711586.9,309867.3,712029
316701.3,304875.4,711254.6,608225.6,711100.6,711567.9,309623.2,712009.6
316383.9,304580.3,711235.4,607644.6,711081.1,711548.3,309213.8,711990.3
316568.7,304757.7,711251.9,607788.1,711097.6,711564.8,309311.3,712006.9
316905.9,305067.7,711274.4,608279.6,711120.1,711587.1,309658.6,712029.3
316733.7,304897.9,711256.1,608073.8,711101.4,711568.8,309507.3,712011.2
316374.3,304561.2,711236.2,607442.5,711081.3,711548.5,309062.3,711991.2
316469.5,304655.7,711247,607445.9,711092.1,711559.5,309062.5,712002
316800.6,304966.8,711265.4,607921.4,711110.7,711577.8,309389.9,712020.4
316734.3,304895.2,711256.7,607873.4,711102.3,711569.5,309352.5,712011.4
316345.9,304530.4,711235.1,607222.6,711080.4,711548,308898.7,711989.4
316356.5,304544.6,711240.9,607082.3,711086.4,711553.7,308801.5,711995.8
316704.4,304867.3,711268.6,607554.9,711113.6,711581.1,309129.7,712023.4
316760.5,304913.7,711270.2,607682.2,711115.5,711582.9,309218.8,712024.8
316365.5,304543.5,711244.3,607054.9,711089.9,711557.2,308773.3,711999.1
316275.7,304466.8,711244.8,606780.5,711089.9,711557.6,308579.5,711999.6
316590.3,304760.6,711266.1,607183.6,711111.1,711578.4,308855.6,712020.6
316758.3,304913.4,711277.1,607457.4,711122.1,711589.6,309050.5,712031.8
316411.7,304590.5,711258.1,606921.9,711103,711570.3,308673.7,712012.6
316201,304402,711240.1,606482.9,711084.9,711552.3,308349.3,711994.1
316466.8,304645.3,711256.8,606797.9,711102,711569.2,308557,712011.1
316688.1,304841.9,711266.6,607155.5,711112.1,711579,308798.9,712020.6
316375.8,304541.4,711245.6,606706.2,711090.6,711558.1,308478.3,711999.8
